Serpentine 0.2-3um HS318.4B estimated optical constants

R. N. Clark, 3/2002
deleted points = -1.23e34

Note: the high values near .23 micron are probably
due to noise.

       wavelength        n         k (cim^-1)

        .205100       1.559891     -1.23e34  
        .213100       1.559719     -1.23e34  
        .221100       1.559548     -1.23e34  
        .229100       1.559376   12057.249023
        .236100       1.559226   11830.421875
        .242100       1.559098     792.818481
        .248100       1.558969    1100.737793
        .253600       1.558851     884.279663
        .258600       1.558744     640.764282
        .263600       1.558637     550.065186
        .268600       1.558530     464.701477
        .273100       1.558434     396.105591
        .277100       1.558348     325.032593
        .281100       1.558262     315.886475
        .285100       1.558176     291.115784
        .289100       1.558091     290.448853
        .293100       1.558005     264.439575
        .297100       1.557919     230.999084
        .301100       1.557834     228.093292
        .305100       1.557748     194.557526
        .309100       1.557662     176.646362
        .313100       1.557576     148.564926
        .317100       1.557491     135.155396
        .321100       1.557405     129.010345
        .325100       1.557319     126.438004
        .329100       1.557233     121.198029
        .333100       1.557148     116.624969
        .337100       1.557062     113.742996
        .341100       1.556976     112.171005
        .345100       1.556891     106.788132
        .349100       1.556805     101.929260
        .353100       1.556719      94.213928
        .357100       1.556633      88.818466
        .360600       1.556558      92.822342
        .363600       1.556494      89.428818
        .366600       1.556430      88.208130
        .369600       1.556366      82.995773
        .372600       1.556301      81.372253
        .375600       1.556237      82.666183
        .378600       1.556173      80.847351
        .381100       1.556119      81.884949
        .383100       1.556076      80.554382
        .385100       1.556033      78.991898
        .387100       1.555991      82.275558
        .389100       1.555948      81.048767
        .391100       1.555905      78.174042
        .393100       1.555862      71.765427
        .395100       1.555819      70.032043
        .397100       1.555776      67.724930
        .399100       1.555733      65.240829
        .401100       1.555691      65.967133
        .403100       1.555648      67.114594
        .405100       1.555605      68.347488
        .407100       1.555562      69.458313
        .409100       1.555519      71.728806
        .411100       1.555476      73.169220
        .412800       1.555440      73.706314
        .415800       1.555376      77.331772
        .418800       1.555311      75.891357
        .421800       1.555247      78.198456
        .424800       1.555183      80.542175
        .427800       1.555118      80.102737
        .430800       1.555054      82.348801
        .433800       1.554990      85.730118
        .436800       1.554926      86.499161
        .439800       1.554861      86.279434
        .442800       1.554797      87.219360
        .445800       1.554733      83.520676
        .448800       1.554669      83.252121
        .451300       1.554615      81.860535
        .453300       1.554572      85.461563
        .455300       1.554529      83.081223
        .457300       1.554486      81.945984
        .459300       1.554443      82.666183
        .461300       1.554401      80.517761
        .463300       1.554358      80.298050
        .465300       1.554315      77.368378
        .467300       1.554272      73.657486
        .469300       1.554229      69.385071
        .471300       1.554186      64.892929
        .473300       1.554144      61.413956
        .475300       1.554101      59.460854
        .477300       1.554058      54.053192
        .479300       1.554015      52.145859
        .481300       1.553972      50.739014
        .483300       1.553929      50.244637
        .485300       1.553886      48.956810
        .487300       1.553843      49.139915
        .489300       1.553801      47.876503
        .491300       1.553758      47.406532
        .493300       1.553715      46.899948
        .495300       1.553672      46.204155
        .497300       1.553629      45.984428
        .499300       1.553586      46.301811
        .501300       1.553543      45.630432
        .503300       1.553501      44.440254
        .505300       1.553458      44.116776
        .507300       1.553415      43.362991
        .509300       1.553372      42.633629
        .511300       1.553329      42.017181
        .513300       1.553286      41.174904
        .515300       1.553244      40.912460
        .517300       1.553201      40.161736
        .519300       1.553158      40.320419
        .521300       1.553115      39.545280
        .523300       1.553072      39.645988
        .525300       1.553029      38.342903
        .527300       1.552986      38.019417
        .529300       1.552943      37.268692
        .531300       1.552901      36.548485
        .533300       1.552858      36.673607
        .535300       1.552815      35.983917
        .537300       1.552772      35.480385
        .539300       1.552729      35.687897
        .541300       1.552686      35.071449
        .543300       1.552644      35.065346
        .545300       1.552601      35.459023
        .547300       1.552558      35.443764
        .549300       1.552515      34.320724
        .551300       1.552472      34.723557
        .553300       1.552429      35.065346
        .555300       1.552386      34.461105
        .557300       1.552343      35.260658
        .559300       1.552301      35.327797
        .561300       1.552258      34.796791
        .563300       1.552215      35.047035
        .565300       1.552172      35.071449
        .567300       1.552129      35.382729
        .569300       1.552086      34.616745
        .571300       1.552044      35.056190
        .573300       1.552001      35.285072
        .575300       1.551958      34.680832
        .577300       1.551915      34.998207
        .579300       1.551872      35.114174
        .581300       1.551829      34.503830
        .583300       1.551786      35.370522
        .585300       1.551744      35.230141
        .587300       1.551701      35.071449
        .589300       1.551658      34.339035
        .591300       1.551615      34.558762
        .593300       1.551572      35.361366
        .595300       1.551529      35.132484
        .597300       1.551486      35.163002
        .599300       1.551443      35.193520
        .601100       1.551405      35.602448
        .602700       1.551371      36.188385
        .604300       1.551336      35.211830
        .605900       1.551302      35.993073
        .607500       1.551268      36.908592
        .609100       1.551234      36.212799
        .610700       1.551199      35.919830
        .612300       1.551165      35.632965
        .613900       1.551131      35.968658
        .615500       1.551096      35.697052
        .617100       1.551062      35.626862
        .618700       1.551028      36.933006
        .620300       1.550994      36.652245
        .621900       1.550959      37.335831
        .623500       1.550925      36.804832
        .625100       1.550891      37.470108
        .626700       1.550856      36.810936
        .628300       1.550822      36.798729
        .629900       1.550788      38.226936
        .631700       1.550749      37.497574
        .633700       1.550706      37.329727
        .635700       1.550663      38.422249
        .637700       1.550621      38.153694
        .639700       1.550578      38.220833
        .641700       1.550535      38.660286
        .643700       1.550492      38.733521
        .645700       1.550449      38.873901
        .647700       1.550406      38.403938
        .649700       1.550364      39.017334
        .651700       1.550321      39.459831
        .653700       1.550278      38.635872
        .655700       1.550235      38.837280
        .657700       1.550192      38.947144
        .659700       1.550149      39.374390
        .661700       1.550106      39.044800
        .663700       1.550063      38.464973
        .665700       1.550021      38.611458
        .667700       1.549978      38.236092
        .670200       1.549924      38.690796
        .673200       1.549860      37.985847
        .676200       1.549796      37.476212
        .679200       1.549731      37.299210
        .682200       1.549667      37.274796
        .685200       1.549603      37.036766
        .688200       1.549538      37.134415
        .691200       1.549474      36.652245
        .694200       1.549410      36.340965
        .697200       1.549346      36.765160
        .700200       1.549281      35.822174
        .702000       1.549243      36.304352
        .704000       1.549200      36.194489
        .706000       1.549157      35.993073
        .708000       1.549114      35.803864
        .710000       1.549071      35.443764
        .712000       1.549029      35.355263
        .714000       1.548986      35.501747
        .716000       1.548943      35.138588
        .718000       1.548900      35.877106
        .720000       1.548857      35.272865
        .722000       1.548814      34.967690
        .724000       1.548771      35.672638
        .726000       1.548728      34.992104
        .728000       1.548686      35.309486
        .730000       1.548643      35.144691
        .732000       1.548600      35.437660
        .734000       1.548557      35.095863
        .736000       1.548514      35.013466
        .738000       1.548471      35.077553
        .740000       1.548429      35.004311
        .742000       1.548386      35.739777
        .744000       1.548343      34.802895
        .746000       1.548300      35.034828
        .748000       1.548257      35.785553
        .750500       1.548203      35.657379
        .753500       1.548139      35.718414
        .756500       1.548075      35.529213
        .759500       1.548011      35.376625
        .762500       1.547946      35.584137
        .765500       1.547882      35.016518
        .768500       1.547818      35.251503
        .771500       1.547753      34.778481
        .774500       1.547689      35.517006
        .777500       1.547625      35.105019
        .781000       1.547550      34.625900
        .785000       1.547464      34.430588
        .789000       1.547379      34.918861
        .793000       1.547293      34.378708
        .797000       1.547207      34.567917
        .801500       1.547111      34.320724
        .806500       1.547004      35.047035
        .811500       1.546896      34.247482
        .816500       1.546789      34.790688
        .822000       1.546671      35.364418
        .828000       1.546543      35.257607
        .835000       1.546393      36.322662
        .843000       1.546221     -1.23e34  
        .851000       1.546050      35.376625
        .859000       1.545879      36.005280
        .871000       1.545621      36.334862
        .883000       1.545364      38.165901
        .894000       1.545128      39.105835
        .904000       1.544914      40.094597
        .914000       1.544700      39.716179
        .924000       1.544486      41.126076
        .933000       1.544293      41.004013
        .941000       1.544121      42.200287
        .949000       1.543950      43.118858
        .957000       1.543779      44.550117
        .964000       1.543628      42.282684
        .970000       1.543500      44.220528
        .976000       1.543371      43.665115
        .982000       1.543243      43.698685
        .988000       1.543114      43.665115
        .994000       1.542986      43.579666
       1.000000       1.542857      44.721016
       1.006000       1.542729      44.037430
       1.012000       1.542600      44.794258
       1.018000       1.542471      46.118706
       1.023500       1.542354      44.885811
       1.028500       1.542246      44.415840
       1.033500       1.542139      45.386292
       1.038500       1.542032      46.295708
       1.043500       1.541925      45.398499
       1.048500       1.541818      45.868462
       1.053500       1.541711      46.570358
       1.058500       1.541604      46.661911
       1.063500       1.541496      46.698532
       1.068500       1.541389      46.899948
       1.073500       1.541282      47.583534
       1.078500       1.541175      47.058640
       1.083500       1.541068      47.406532
       1.088500       1.540961      47.583534
       1.093500       1.540854      47.076950
       1.098500       1.540746      47.162399
       1.103500       1.540639      48.199982
       1.108500       1.540532      48.041298
       1.113500       1.540425      47.937538
       1.118500       1.540318      47.614052
       1.123500       1.540211      47.144089
       1.128500       1.540104      48.230499
       1.133500       1.539996      47.668983
       1.138500       1.539889      47.638466
       1.143500       1.539782      48.444122
       1.148500       1.539675      48.108429
       1.153500       1.539568      48.236603
       1.158500       1.539461      48.413605
       1.163500       1.539353      48.206085
       1.168500       1.539246      47.583534
       1.173500       1.539139      47.833778
       1.178500       1.539032      48.523468
       1.183500       1.538925      49.225365
       1.188500       1.538818      47.961952
       1.193500       1.538711      48.523468
       1.198500       1.538604      47.748329
       1.203500       1.538496      47.571327
       1.208500       1.538389      48.602814
       1.213500       1.538282      47.845985
       1.218500       1.538175      47.290565
       1.223500       1.538068      47.131882
       1.228500       1.537961      48.199982
       1.233500       1.537853      46.960983
       1.238500       1.537746      46.722946
       1.243500       1.537639      47.327187
       1.248500       1.537532      46.942673
       1.253500       1.537425      47.571327
       1.258500       1.537318      47.199020
       1.263500       1.537211      46.918259
       1.268500       1.537104      46.442192
       1.273500       1.536996      47.864296
       1.278500       1.536889      49.072777
       1.283500       1.536782      48.651642
       1.288500       1.536675      48.511261
       1.293500       1.536568      47.449257
       1.298500       1.536461      47.235641
       1.303500       1.536353      47.205124
       1.308500       1.536246      46.872482
       1.313500       1.536139      47.156296
       1.318500       1.536032      46.417778
       1.323500       1.535925      46.185844
       1.328500       1.535818      46.704636
       1.333500       1.535711      46.509323
       1.338500       1.535604      46.863327
       1.343500       1.535496      46.976242
       1.348500       1.535389      47.366859
       1.353500       1.535282      49.042259
       1.358500       1.535175      53.827362
       1.363500       1.535068      53.003395
       1.368500       1.534961      50.659668
       1.373500       1.534854      49.365746
       1.378500       1.534746      49.518326
       1.383500       1.534639      58.069267
       1.388500       1.534532      89.038193
       1.393500       1.534425      85.913223
       1.398500       1.534318      96.313507
       1.403500       1.534211      80.688660
       1.408500       1.534104      61.334610
       1.413500       1.533996      55.347122
       1.418500       1.533889      53.479469
       1.423500       1.533782      55.481400
       1.428500       1.533675      53.186501
       1.433500       1.533568      50.787842
       1.438500       1.533461      51.019775
       1.443500       1.533354      50.220222
       1.448500       1.533246      48.792023
       1.453500       1.533139      49.536636
       1.458500       1.533032      48.315948
       1.463500       1.532925      48.059601
       1.468500       1.532818      48.303741
       1.473500       1.532711      47.577431
       1.478500       1.532604      47.034225
       1.483500       1.532496      47.516396
       1.488500       1.532389      47.888710
       1.493500       1.532282      47.101364
       1.498500       1.532175      46.765671
       1.503500       1.532068      46.649704
       1.508500       1.531961      47.186813
       1.513500       1.531854      47.205124
       1.518500       1.531746      46.137016
       1.523500       1.531639      46.625290
       1.528500       1.531532      46.481865
       1.534000       1.531414      47.449257
       1.540000       1.531286      46.686325
       1.546000       1.531157      47.083054
       1.552000       1.531029      47.376015
       1.558000       1.530900      45.972221
       1.564000       1.530771      46.350639
       1.570500       1.530632      47.083054
       1.577500       1.530482      46.277397
       1.584500       1.530332      46.130913
       1.591500       1.530182      45.960014
       1.598500       1.530032      46.906052
       1.605500       1.529882      46.384209
       1.612500       1.529732      46.252983
       1.619500       1.529582      45.764702
       1.626500       1.529432      46.628342
       1.633500       1.529282      46.295708
       1.640500       1.529132      46.487961
       1.647500       1.528982      47.278358
       1.654500       1.528832      47.131882
       1.661500       1.528682      46.301811
       1.668500       1.528532      46.167534
       1.676000       1.528371      46.899948
       1.684000       1.528200      48.938499
       1.692000       1.528028      47.150192
       1.700000       1.527857      46.393364
       1.708000       1.527686      46.704636
       1.716000       1.527514      47.504189
       1.724000       1.527343      47.565224
       1.732000       1.527171      46.838913
       1.740000       1.527000      48.108429
       1.748000       1.526829      47.583534
       1.756000       1.526657      48.596710
       1.764000       1.526486      48.560089
       1.772000       1.526314      48.267120
       1.780000       1.526143      48.816437
       1.788000       1.525971      49.536636
       1.796000       1.525800      48.572296
       1.805000       1.525607      49.329124
       1.815000       1.525393      49.866226
       1.825000       1.525179      49.500015
       1.835000       1.524964      50.110359
       1.845000       1.524750      50.574226
       1.855000       1.524536      51.208977
       1.865000       1.524321      50.818359
       1.875000       1.524107      52.447983
       1.885000       1.523893      54.272919
       1.895000       1.523679      57.172058
       1.905000       1.523464      60.876854
       1.915000       1.523250      64.978378
       1.925000       1.523036      66.162445
       1.935000       1.522821      67.682205
       1.945000       1.522607      69.360657
       1.955000       1.522393      69.226379
       1.965000       1.522179      73.919937
       1.975000       1.521964      72.741974
       1.985000       1.521750      77.154770
       1.995000       1.521536      71.899689
       2.005000       1.521321      70.251770
       2.015000       1.521107      70.007629
       2.025000       1.520893      70.190735
       2.035000       1.520679      65.307968
       2.045000       1.520464      67.016937
       2.055000       1.520250      60.144440
       2.065000       1.520036      59.045815
       2.075000       1.519821      60.803612
       2.085000       1.519607      60.889061
       2.095000       1.519393      65.326279
       2.105000       1.519179      69.226379
       2.115000       1.518964      68.152176
       2.125000       1.518750      67.651688
       2.135000       1.518536      68.506180
       2.145000       1.518321      66.394379
       2.155000       1.518107      64.905136
       2.165000       1.517893      60.193268
       2.175000       1.517678      59.888092
       2.185000       1.517464      60.657127
       2.195000       1.517250      60.052887
       2.205000       1.517036      60.748680
       2.215000       1.516821      61.474991
       2.225000       1.516607      69.848938
       2.235000       1.516393      79.736526
       2.245000       1.516178      97.338898
       2.255000       1.515964     100.142914
       2.265000       1.515750     111.766098
       2.275000       1.515536     143.491699
       2.285000       1.515321     143.920410
       2.295000       1.515107     155.472153
       2.305000       1.514893     189.996368
       2.315000       1.514679     206.395081
       2.325000       1.514464     225.902039
       2.335000       1.514250     237.620483
       2.345000       1.514036     211.968491
       2.355000       1.513821     132.678314
       2.365000       1.513607     129.510513
       2.375000       1.513393     154.162170
       2.386000       1.513157     146.206940
       2.400000       1.512857     154.900528
       2.418000       1.512471     164.058563
       2.440000       1.512000     186.673767
       2.466000       1.511443     169.489075
       2.496000       1.510800     208.860229
       2.528000       1.510114     222.293610
       2.560000       1.509429     196.069977
       2.592000       1.508743     169.489075
       2.624000       1.508057     135.965210
       2.656000       1.507371     162.843842
       2.688000       1.506686     279.849854
       2.720000       1.506000    2332.875488
       2.752000       1.505314     394.332642
       2.784000       1.504629    2297.241211
       2.816000       1.503943    2280.226074
       2.848000       1.503257    2264.714600
       2.880000       1.502571     718.161865
       2.912000       1.501886    2234.982178
       2.944000       1.501200    2212.000732
       2.976000       1.500514    2197.990723
