From Roush et al. (2007), J. Geophys. Res.-Planets
average of Long et al. crystal values
Frequency   Wavelength
 (cm-1)     microns        n           k
4000.0000	2.5000	1.4756	1.8037e-3
3996.0000	2.5025	1.4754	1.8314e-3
3992.0000	2.5050	1.4751	1.8598e-3
3988.0000	2.5075	1.4748	1.8888e-3
3984.0000	2.5100	1.4745	1.9187e-3
3980.0000	2.5126	1.4742	1.9492e-3
3976.0000	2.5151	1.4739	1.9806e-3
3972.0000	2.5176	1.4736	2.0127e-3
3968.0000	2.5202	1.4733	2.0457e-3
3964.0000	2.5227	1.4730	2.0795e-3
3960.0000	2.5253	1.4727	2.1143e-3
3956.0000	2.5278	1.4723	2.1500e-3
3952.0000	2.5304	1.4720	2.1865e-3
3948.0000	2.5329	1.4717	2.2242e-3
3944.0000	2.5355	1.4713	2.2628e-3
3940.0000	2.5381	1.4710	2.3025e-3
3936.0000	2.5407	1.4706	2.3434e-3
3932.0000	2.5432	1.4703	2.3854e-3
3928.0000	2.5458	1.4699	2.4285e-3
3924.0000	2.5484	1.4696	2.4730e-3
3920.0000	2.5510	1.4691	2.5187e-3
3916.0000	2.5536	1.4688	2.5658e-3
3912.0000	2.5562	1.4684	2.6142e-3
3908.0000	2.5589	1.4680	2.6642e-3
3904.0000	2.5615	1.4676	2.7156e-3
3900.0000	2.5641	1.4672	2.7687e-3
3896.0000	2.5667	1.4667	2.8234e-3
3892.0000	2.5694	1.4663	2.8798e-3
3888.0000	2.5720	1.4659	2.9380e-3
3884.0000	2.5747	1.4654	2.9981e-3
3880.0000	2.5773	1.4650	3.0601e-3
3876.0000	2.5800	1.4645	3.1242e-3
3872.0000	2.5826	1.4640	3.1904e-3
3868.0000	2.5853	1.4635	3.2589e-3
3864.0000	2.5880	1.4630	3.3297e-3
3860.0000	2.5907	1.4625	3.4029e-3
3856.0000	2.5934	1.4621	3.4788e-3
3852.0000	2.5961	1.4615	3.5573e-3
3848.0000	2.5988	1.4610	3.6386e-3
3844.0000	2.6015	1.4604	3.7229e-3
3840.0000	2.6042	1.4598	3.8103e-3
3836.0000	2.6069	1.4593	3.9010e-3
3832.0000	2.6096	1.4587	3.9951e-3
3828.0000	2.6123	1.4581	4.0929e-3
3824.0000	2.6151	1.4575	4.1944e-3
3820.0000	2.6178	1.4568	4.3000e-3
3816.0000	2.6205	1.4562	4.4098e-3
3812.0000	2.6233	1.4555	4.5241e-3
3808.0000	2.6261	1.4548	4.6431e-3
3804.0000	2.6288	1.4542	4.7798e-3
3800.0000	2.6316	1.4535	4.9070e-3
3796.0000	2.6344	1.4527	5.0351e-3
3792.0000	2.6371	1.4519	5.1640e-3
3788.0000	2.6399	1.4512	5.3272e-3
3784.0000	2.6427	1.4504	5.4580e-3
3780.0000	2.6455	1.4496	5.6232e-3
3776.0000	2.6483	1.4487	5.7893e-3
3772.0000	2.6511	1.4478	5.9899e-3
3768.0000	2.6539	1.4469	6.1583e-3
3764.0000	2.6567	1.4460	6.3611e-3
3760.0000	2.6596	1.4451	6.5652e-3
3756.0000	2.6624	1.4441	6.7707e-3
3752.0000	2.6652	1.4431	7.0107e-3
3748.0000	2.6681	1.4421	7.2522e-3
3744.0000	2.6709	1.4410	7.4952e-3
3740.0000	2.6738	1.4399	7.7397e-3
3736.0000	2.6767	1.4387	8.0192e-3
3732.0000	2.6795	1.4375	8.3337e-3
3728.0000	2.6824	1.4363	8.6500e-3
3724.0000	2.6853	1.4350	8.9682e-3
3720.0000	2.6882	1.4337	9.3218e-3
3716.0000	2.6911	1.4324	9.7107e-3
3712.0000	2.6940	1.4309	0.0101
3708.0000	2.6969	1.4294	0.0105
3704.0000	2.6998	1.4279	0.0110
3700.0000	2.7027	1.4263	0.0115
3696.0000	2.7056	1.4246	0.0120
3692.0000	2.7086	1.4229	0.0125
3688.0000	2.7115	1.4211	0.0131
3684.0000	2.7144	1.4192	0.0138
3680.0000	2.7174	1.4172	0.0145
3676.0000	2.7203	1.4151	0.0152
3672.0000	2.7233	1.4129	0.0160
3668.0000	2.7263	1.4106	0.0169
3664.0000	2.7293	1.4082	0.0179
3660.0000	2.7322	1.4057	0.0190
3656.0000	2.7352	1.4031	0.0201
3652.0000	2.7382	1.4003	0.0214
3648.0000	2.7412	1.3973	0.0228
3644.0000	2.7442	1.3942	0.0243
3640.0000	2.7473	1.3909	0.0260
3636.0000	2.7503	1.3874	0.0279
3632.0000	2.7533	1.3837	0.0300
3628.0000	2.7563	1.3797	0.0324
3624.0000	2.7594	1.3756	0.0351
3620.0000	2.7624	1.3711	0.0381
3616.0000	2.7655	1.3664	0.0416
3612.0000	2.7685	1.3614	0.0455
3608.0000	2.7716	1.3561	0.0501
3604.0000	2.7747	1.3504	0.0553
3600.0000	2.7778	1.3446	0.0614
3596.0000	2.7809	1.3384	0.0686
3592.0000	2.7840	1.3321	0.0769
3588.0000	2.7871	1.3258	0.0867
3584.0000	2.7902	1.3197	0.0983
3580.0000	2.7933	1.3141	0.1118
3576.0000	2.7964	1.3095	0.1276
3572.0000	2.7996	1.3066	0.1457
3568.0000	2.8027	1.3061	0.1662
3564.0000	2.8058	1.3090	0.1887
3560.0000	2.8090	1.3160	0.2126
3556.0000	2.8121	1.3281	0.2370
3552.0000	2.8153	1.3458	0.2605
3548.0000	2.8185	1.3693	0.2816
3544.0000	2.8217	1.3984	0.2982
3540.0000	2.8249	1.4321	0.3083
3536.0000	2.8281	1.4682	0.3102
3532.0000	2.8313	1.5037	0.3028
3528.0000	2.8345	1.5353	0.2869
3524.0000	2.8377	1.5603	0.2647
3520.0000	2.8409	1.5775	0.2392
3516.0000	2.8441	1.5872	0.2133
3512.0000	2.8474	1.5905	0.1891
3508.0000	2.8506	1.5892	0.1677
3504.0000	2.8539	1.5847	0.1494
3500.0000	2.8571	1.5781	0.1343
3496.0000	2.8604	1.5702	0.1221
3492.0000	2.8637	1.5615	0.1124
3488.0000	2.8670	1.5524	0.1049
3484.0000	2.8703	1.5431	0.0994
3480.0000	2.8736	1.5338	0.0957
3476.0000	2.8769	1.5245	0.0936
3472.0000	2.8802	1.5152	0.0931
3468.0000	2.8835	1.5061	0.0941
3464.0000	2.8868	1.4971	0.0966
3460.0000	2.8902	1.4884	0.1009
3456.0000	2.8935	1.4800	0.1069
3452.0000	2.8969	1.4723	0.1149
3448.0000	2.9002	1.4654	0.1250
3444.0000	2.9036	1.4601	0.1374
3440.0000	2.9070	1.4567	0.1522
3436.0000	2.9104	1.4563	0.1691
3432.0000	2.9138	1.4596	0.1878
3428.0000	2.9172	1.4676	0.2073
3424.0000	2.9206	1.4808	0.2264
3420.0000	2.9240	1.4996	0.2436
3416.0000	2.9274	1.5237	0.2568
3412.0000	2.9308	1.5519	0.2642
3408.0000	2.9343	1.5823	0.2643
3404.0000	2.9377	1.6121	0.2564
3400.0000	2.9412	1.6384	0.2414
3396.0000	2.9446	1.6592	0.2212
3392.0000	2.9481	1.6737	0.1985
3388.0000	2.9516	1.6820	0.1755
3384.0000	2.9551	1.6855	0.1538
3380.0000	2.9586	1.6853	0.1343
3376.0000	2.9621	1.6826	0.1173
3372.0000	2.9656	1.6783	0.1028
3368.0000	2.9691	1.6732	0.0904
3364.0000	2.9727	1.6676	0.0799
3360.0000	2.9762	1.6618	0.0709
3356.0000	2.9797	1.6562	0.0634
3352.0000	2.9833	1.6506	0.0569
3348.0000	2.9869	1.6452	0.0513
3344.0000	2.9904	1.6402	0.0466
3340.0000	2.9940	1.6353	0.0424
3336.0000	2.9976	1.6307	0.0388
3332.0000	3.0012	1.6264	0.0356
3328.0000	3.0048	1.6224	0.0328
3324.0000	3.0084	1.6185	0.0304
3320.0000	3.0120	1.6149	0.0282
3316.0000	3.0157	1.6115	0.0262
3312.0000	3.0193	1.6082	0.0245
3308.0000	3.0230	1.6052	0.0229
3304.0000	3.0266	1.6023	0.0215
3300.0000	3.0303	1.5995	0.0202
3296.0000	3.0340	1.5969	0.0190
3292.0000	3.0377	1.5945	0.0179
3288.0000	3.0414	1.5921	0.0170
3284.0000	3.0451	1.5899	0.0161
3280.0000	3.0488	1.5877	0.0152
3276.0000	3.0525	1.5857	0.0145
3272.0000	3.0562	1.5837	0.0138
3268.0000	3.0600	1.5819	0.0131
3264.0000	3.0637	1.5801	0.0125
3260.0000	3.0675	1.5784	0.0120
3256.0000	3.0713	1.5767	0.0115
3252.0000	3.0750	1.5751	0.0110
3248.0000	3.0788	1.5736	0.0105
3244.0000	3.0826	1.5721	0.0101
3240.0000	3.0864	1.5707	9.7088e-3
3236.0000	3.0902	1.5694	9.3415e-3
3232.0000	3.0941	1.5681	8.9767e-3
3228.0000	3.0979	1.5668	8.6478e-3
3224.0000	3.1017	1.5656	8.3546e-3
3220.0000	3.1056	1.5644	8.0636e-3
3216.0000	3.1095	1.5632	7.7748e-3
3212.0000	3.1133	1.5621	7.5214e-3
3208.0000	3.1172	1.5610	7.2699e-3
3204.0000	3.1211	1.5600	7.0536e-3
3200.0000	3.1250	1.5590	6.8058e-3
3196.0000	3.1289	1.5580	6.5930e-3
3192.0000	3.1328	1.5571	6.4150e-3
3188.0000	3.1368	1.5561	6.2054e-3
3184.0000	3.1407	1.5552	6.0305e-3
3180.0000	3.1447	1.5543	5.8570e-3
3176.0000	3.1486	1.5535	5.6849e-3
3172.0000	3.1526	1.5527	5.5474e-3
3168.0000	3.1566	1.5519	5.3778e-3
3164.0000	3.1606	1.5511	5.2427e-3
3160.0000	3.1646	1.5503	5.1057e-3
3156.0000	3.1686	1.5496	4.9738e-3
3152.0000	3.1726	1.5489	4.8475e-3
3148.0000	3.1766	1.5481	4.7265e-3
3144.0000	3.1807	1.5474	4.6103e-3
3140.0000	3.1847	1.5468	4.4989e-3
3136.0000	3.1888	1.5461	4.3920e-3
3132.0000	3.1928	1.5454	4.2892e-3
3128.0000	3.1969	1.5448	4.1904e-3
3124.0000	3.2010	1.5442	4.0954e-3
3120.0000	3.2051	1.5436	4.0040e-3
3116.0000	3.2092	1.5429	3.9160e-3
3112.0000	3.2134	1.5424	3.8312e-3
3108.0000	3.2175	1.5418	3.7496e-3
3104.0000	3.2216	1.5413	3.6708e-3
3100.0000	3.2258	1.5407	3.5949e-3
3096.0000	3.2300	1.5402	3.5216e-3
3092.0000	3.2342	1.5396	3.4509e-3
3088.0000	3.2383	1.5391	3.3825e-3
3084.0000	3.2425	1.5386	3.3165e-3
3080.0000	3.2468	1.5381	3.2528e-3
3076.0000	3.2510	1.5376	3.1911e-3
3072.0000	3.2552	1.5371	3.1315e-3
3068.0000	3.2595	1.5366	3.0738e-3
3064.0000	3.2637	1.5362	3.0180e-3
3060.0000	3.2680	1.5357	2.9640e-3
3056.0000	3.2723	1.5352	2.9116e-3
3052.0000	3.2765	1.5348	2.8609e-3
3048.0000	3.2808	1.5343	2.8118e-3
3044.0000	3.2852	1.5339	2.7641e-3
3040.0000	3.2895	1.5335	2.7180e-3
3036.0000	3.2938	1.5331	2.6732e-3
3032.0000	3.2982	1.5327	2.6297e-3
3028.0000	3.3025	1.5322	2.5875e-3
3024.0000	3.3069	1.5319	2.5466e-3
3020.0000	3.3113	1.5315	2.5069e-3
3016.0000	3.3156	1.5311	2.4683e-3
3012.0000	3.3201	1.5307	2.4308e-3
3008.0000	3.3245	1.5303	2.3944e-3
3004.0000	3.3289	1.5299	2.3590e-3
3000.0000	3.3333	1.5295	2.3246e-3
2996.0000	3.3378	1.5292	2.2911e-3
2992.0000	3.3422	1.5288	2.2585e-3
2988.0000	3.3467	1.5285	2.2269e-3
2984.0000	3.3512	1.5281	2.1961e-3
2980.0000	3.3557	1.5278	2.1662e-3
2976.0000	3.3602	1.5274	2.1370e-3
2972.0000	3.3647	1.5271	2.1086e-3
2968.0000	3.3693	1.5267	2.0810e-3
2964.0000	3.3738	1.5264	2.0541e-3
2960.0000	3.3784	1.5261	2.0279e-3
2956.0000	3.3829	1.5258	2.0024e-3
2952.0000	3.3875	1.5255	1.9775e-3
2948.0000	3.3921	1.5251	1.9532e-3
2944.0000	3.3967	1.5248	1.9296e-3
2940.0000	3.4014	1.5245	1.9066e-3
2936.0000	3.4060	1.5242	1.8841e-3
2932.0000	3.4106	1.5239	1.8623e-3
2928.0000	3.4153	1.5236	1.8409e-3
2924.0000	3.4200	1.5233	1.8201e-3
2920.0000	3.4247	1.5230	1.7998e-3
2916.0000	3.4294	1.5227	1.7800e-3
2912.0000	3.4341	1.5224	1.7607e-3
2908.0000	3.4388	1.5221	1.7419e-3
2904.0000	3.4435	1.5218	1.7235e-3
2900.0000	3.4483	1.5215	1.7055e-3
2896.0000	3.4530	1.5213	1.6880e-3
2892.0000	3.4578	1.5210	1.6709e-3
2888.0000	3.4626	1.5207	1.6542e-3
2884.0000	3.4674	1.5204	1.6379e-3
2880.0000	3.4722	1.5202	1.6220e-3
2876.0000	3.4771	1.5199	1.6065e-3
2872.0000	3.4819	1.5196	1.5913e-3
2868.0000	3.4868	1.5193	1.5765e-3
2864.0000	3.4916	1.5191	1.5620e-3
2860.0000	3.4965	1.5188	1.5479e-3
2856.0000	3.5014	1.5185	1.5341e-3
2852.0000	3.5063	1.5183	1.5206e-3
2848.0000	3.5112	1.5180	1.5074e-3
2844.0000	3.5162	1.5178	1.4946e-3
2840.0000	3.5211	1.5175	1.4820e-3
2836.0000	3.5261	1.5173	1.4697e-3
2832.0000	3.5311	1.5170	1.4577e-3
2828.0000	3.5361	1.5168	1.4460e-3
2824.0000	3.5411	1.5165	1.4345e-3
2820.0000	3.5461	1.5163	1.4233e-3
2816.0000	3.5511	1.5160	1.4124e-3
2812.0000	3.5562	1.5158	1.4017e-3
2808.0000	3.5613	1.5155	1.3913e-3
2804.0000	3.5663	1.5153	1.3811e-3
2800.0000	3.5714	1.5151	1.3711e-3
2796.0000	3.5765	1.5148	1.3614e-3
2792.0000	3.5817	1.5146	1.3519e-3
2788.0000	3.5868	1.5143	1.3426e-3
2784.0000	3.5920	1.5141	1.3335e-3
2780.0000	3.5971	1.5139	1.3246e-3
2776.0000	3.6023	1.5137	1.3159e-3
2772.0000	3.6075	1.5134	1.3075e-3
2768.0000	3.6127	1.5132	1.2992e-3
2764.0000	3.6179	1.5130	1.2911e-3
2760.0000	3.6232	1.5127	1.2832e-3
2756.0000	3.6284	1.5125	1.2755e-3
2752.0000	3.6337	1.5122	1.2680e-3
2748.0000	3.6390	1.5120	1.2606e-3
2744.0000	3.6443	1.5118	1.2534e-3
2740.0000	3.6496	1.5116	1.2464e-3
2736.0000	3.6550	1.5114	1.2396e-3
2732.0000	3.6603	1.5111	1.2329e-3
2728.0000	3.6657	1.5109	1.2264e-3
2724.0000	3.6711	1.5107	1.2200e-3
2720.0000	3.6765	1.5105	1.2138e-3
2716.0000	3.6819	1.5103	1.2078e-3
2712.0000	3.6873	1.5100	1.2019e-3
2708.0000	3.6928	1.5098	1.1961e-3
2704.0000	3.6982	1.5096	1.1905e-3
2700.0000	3.7037	1.5093	1.1850e-3
2696.0000	3.7092	1.5092	1.1797e-3
2692.0000	3.7147	1.5089	1.1744e-3
2688.0000	3.7202	1.5087	1.1694e-3
2684.0000	3.7258	1.5085	1.1644e-3
2680.0000	3.7313	1.5083	1.1596e-3
2676.0000	3.7369	1.5081	1.1549e-3
2672.0000	3.7425	1.5078	1.1504e-3
2668.0000	3.7481	1.5076	1.1460e-3
2664.0000	3.7538	1.5074	1.1416e-3
2660.0000	3.7594	1.5072	1.1374e-3
2656.0000	3.7651	1.5070	1.1333e-3
2652.0000	3.7707	1.5068	1.1294e-3
2648.0000	3.7764	1.5065	1.1255e-3
2644.0000	3.7821	1.5063	1.1218e-3
2640.0000	3.7879	1.5061	1.1182e-3
2636.0000	3.7936	1.5059	1.1147e-3
2632.0000	3.7994	1.5057	1.1112e-3
2628.0000	3.8052	1.5055	1.1079e-3
2624.0000	3.8110	1.5052	1.1047e-3
2620.0000	3.8168	1.5050	1.1016e-3
2616.0000	3.8226	1.5049	1.0986e-3
2612.0000	3.8285	1.5046	1.0957e-3
2608.0000	3.8344	1.5044	1.0929e-3
2604.0000	3.8402	1.5042	1.0902e-3
2600.0000	3.8462	1.5040	1.0876e-3
2596.0000	3.8521	1.5038	1.0851e-3
2592.0000	3.8580	1.5036	1.0827e-3
2588.0000	3.8640	1.5033	1.0804e-3
2584.0000	3.8700	1.5031	1.0781e-3
2580.0000	3.8760	1.5030	1.0760e-3
2576.0000	3.8820	1.5027	1.0740e-3
2572.0000	3.8880	1.5025	1.0720e-3
2568.0000	3.8941	1.5023	1.0701e-3
2564.0000	3.9002	1.5021	1.0683e-3
2560.0000	3.9063	1.5018	1.0666e-3
2556.0000	3.9124	1.5016	1.0650e-3
2552.0000	3.9185	1.5015	1.0635e-3
2548.0000	3.9246	1.5012	1.0620e-3
2544.0000	3.9308	1.5010	1.0607e-3
2540.0000	3.9370	1.5008	1.0594e-3
2536.0000	3.9432	1.5006	1.0582e-3
2532.0000	3.9494	1.5003	1.0571e-3
2528.0000	3.9557	1.5002	1.0560e-3
2524.0000	3.9620	1.4999	1.0551e-3
2520.0000	3.9683	1.4997	1.0542e-3
2516.0000	3.9746	1.4995	1.0534e-3
2512.0000	3.9809	1.4993	1.0526e-3
2508.0000	3.9872	1.4991	1.0520e-3
2504.0000	3.9936	1.4989	1.0514e-3
2500.0000	4.0000	1.4986	1.0509e-3
2496.0000	4.0064	1.4984	1.0505e-3
2492.0000	4.0128	1.4982	1.0502e-3
2488.0000	4.0193	1.4980	1.0499e-3
2484.0000	4.0258	1.4978	1.0497e-3
2480.0000	4.0323	1.4976	1.0496e-3
2476.0000	4.0388	1.4973	1.0495e-3
2472.0000	4.0453	1.4971	1.0495e-3
2468.0000	4.0519	1.4969	1.0496e-3
2464.0000	4.0584	1.4967	1.0498e-3
2460.0000	4.0650	1.4964	1.0500e-3
2456.0000	4.0717	1.4962	1.0503e-3
2452.0000	4.0783	1.4960	1.0507e-3
2448.0000	4.0850	1.4958	1.0512e-3
2444.0000	4.0917	1.4955	1.0517e-3
2440.0000	4.0984	1.4953	1.0523e-3
2436.0000	4.1051	1.4951	1.0529e-3
2432.0000	4.1118	1.4949	1.0537e-3
2428.0000	4.1186	1.4946	1.0545e-3
2424.0000	4.1254	1.4944	1.0553e-3
2420.0000	4.1322	1.4942	1.0563e-3
2416.0000	4.1391	1.4940	1.0573e-3
2412.0000	4.1459	1.4937	1.0584e-3
2408.0000	4.1528	1.4935	1.0595e-3
2404.0000	4.1597	1.4933	1.0607e-3
2400.0000	4.1667	1.4930	1.0620e-3
2396.0000	4.1736	1.4928	1.0634e-3
2392.0000	4.1806	1.4926	1.0648e-3
2388.0000	4.1876	1.4923	1.0663e-3
2384.0000	4.1946	1.4921	1.0679e-3
2380.0000	4.2017	1.4919	1.0696e-3
2376.0000	4.2088	1.4916	1.0713e-3
2372.0000	4.2159	1.4914	1.0730e-3
2368.0000	4.2230	1.4912	1.0749e-3
2364.0000	4.2301	1.4909	1.0768e-3
2360.0000	4.2373	1.4907	1.0787e-3
2356.0000	4.2445	1.4904	1.0808e-3
2352.0000	4.2517	1.4902	1.0830e-3
2348.0000	4.2589	1.4900	1.0852e-3
2344.0000	4.2662	1.4897	1.0874e-3
2340.0000	4.2735	1.4894	1.0898e-3
2336.0000	4.2808	1.4892	1.0922e-3
2332.0000	4.2882	1.4890	1.0947e-3
2328.0000	4.2955	1.4887	1.0972e-3
2324.0000	4.3029	1.4884	1.0998e-3
2320.0000	4.3103	1.4882	1.1026e-3
2316.0000	4.3178	1.4880	1.1053e-3
2312.0000	4.3253	1.4877	1.1082e-3
2308.0000	4.3328	1.4874	1.1111e-3
2304.0000	4.3403	1.4872	1.1141e-3
2300.0000	4.3478	1.4870	1.1171e-3
2296.0000	4.3554	1.4867	1.1203e-3
2292.0000	4.3630	1.4864	1.1235e-3
2288.0000	4.3706	1.4861	1.1268e-3
2284.0000	4.3783	1.4859	1.1302e-3
2280.0000	4.3860	1.4857	1.1336e-3
2276.0000	4.3937	1.4854	1.1371e-3
2272.0000	4.4014	1.4851	1.1407e-3
2268.0000	4.4092	1.4848	1.1444e-3
2264.0000	4.4170	1.4846	1.1482e-3
2260.0000	4.4248	1.4843	1.1520e-3
2256.0000	4.4326	1.4840	1.1560e-3
2252.0000	4.4405	1.4837	1.1600e-3
2248.0000	4.4484	1.4835	1.1640e-3
2244.0000	4.4563	1.4832	1.1682e-3
2240.0000	4.4643	1.4829	1.1724e-3
2236.0000	4.4723	1.4826	1.1768e-3
2232.0000	4.4803	1.4823	1.1812e-3
2228.0000	4.4883	1.4821	1.1857e-3
2224.0000	4.4964	1.4818	1.1903e-3
2220.0000	4.5045	1.4815	1.1950e-3
2216.0000	4.5126	1.4812	1.1998e-3
2212.0000	4.5208	1.4809	1.2046e-3
2208.0000	4.5290	1.4806	1.2096e-3
2204.0000	4.5372	1.4803	1.2147e-3
2200.0000	4.5455	1.4800	1.2198e-3
2196.0000	4.5537	1.4797	1.2250e-3
2192.0000	4.5620	1.4794	1.2304e-3
2188.0000	4.5704	1.4791	1.2358e-3
2184.0000	4.5788	1.4788	1.2413e-3
2180.0000	4.5872	1.4785	1.2470e-3
2176.0000	4.5956	1.4782	1.2527e-3
2172.0000	4.6041	1.4779	1.2585e-3
2168.0000	4.6125	1.4776	1.2645e-3
2164.0000	4.6211	1.4773	1.2705e-3
2160.0000	4.6296	1.4769	1.2766e-3
2156.0000	4.6382	1.4766	1.2829e-3
2152.0000	4.6468	1.4763	1.2893e-3
2148.0000	4.6555	1.4760	1.2958e-3
2144.0000	4.6642	1.4757	1.3024e-3
2140.0000	4.6729	1.4753	1.3091e-3
2136.0000	4.6816	1.4750	1.3159e-3
2132.0000	4.6904	1.4746	1.3229e-3
2128.0000	4.6992	1.4743	1.3300e-3
2124.0000	4.7081	1.4740	1.3372e-3
2120.0000	4.7170	1.4736	1.3445e-3
2116.0000	4.7259	1.4733	1.3520e-3
2112.0000	4.7348	1.4730	1.3596e-3
2108.0000	4.7438	1.4726	1.3673e-3
2104.0000	4.7529	1.4722	1.3752e-3
2100.0000	4.7619	1.4719	1.3832e-3
2096.0000	4.7710	1.4716	1.3913e-3
2092.0000	4.7801	1.4712	1.3997e-3
2088.0000	4.7893	1.4708	1.4081e-3
2084.0000	4.7985	1.4704	1.4167e-3
2080.0000	4.8077	1.4701	1.4255e-3
2076.0000	4.8170	1.4697	1.4344e-3
2072.0000	4.8263	1.4693	1.4435e-3
2068.0000	4.8356	1.4690	1.4527e-3
2064.0000	4.8450	1.4686	1.4621e-3
2060.0000	4.8544	1.4682	1.4718e-3
2056.0000	4.8638	1.4678	1.4815e-3
2052.0000	4.8733	1.4674	1.4915e-3
2048.0000	4.8828	1.4670	1.5017e-3
2044.0000	4.8924	1.4666	1.5120e-3
2040.0000	4.9020	1.4662	1.5226e-3
2036.0000	4.9116	1.4658	1.5333e-3
2032.0000	4.9213	1.4654	1.5443e-3
2028.0000	4.9310	1.4649	1.5555e-3
2024.0000	4.9407	1.4645	1.5669e-3
2020.0000	4.9505	1.4641	1.5785e-3
2016.0000	4.9603	1.4637	1.5905e-3
2012.0000	4.9702	1.4632	1.6026e-3
2008.0000	4.9801	1.4628	1.6150e-3
2004.0000	4.9900	1.4624	1.6276e-3
2000.0000	5.0000	1.4619	1.6406e-3
1998.0000	5.0050	1.4617	1.6471e-3
1996.0000	5.0100	1.4614	1.6538e-3
1994.0000	5.0150	1.4612	1.6605e-3
1992.0000	5.0201	1.4610	1.6672e-3
1990.0000	5.0251	1.4607	1.6741e-3
1988.0000	5.0302	1.4605	1.6810e-3
1986.0000	5.0352	1.4603	1.6881e-3
1984.0000	5.0403	1.4601	1.6951e-3
1982.0000	5.0454	1.4598	1.7023e-3
1980.0000	5.0505	1.4596	1.7095e-3
1978.0000	5.0556	1.4593	1.7169e-3
1976.0000	5.0607	1.4591	1.7243e-3
1974.0000	5.0659	1.4588	1.7318e-3
1972.0000	5.0710	1.4586	1.7394e-3
1970.0000	5.0761	1.4584	1.7471e-3
1968.0000	5.0813	1.4581	1.7549e-3
1966.0000	5.0865	1.4579	1.7627e-3
1964.0000	5.0916	1.4576	1.7707e-3
1962.0000	5.0968	1.4574	1.7788e-3
1960.0000	5.1020	1.4571	1.7869e-3
1958.0000	5.1073	1.4569	1.7952e-3
1956.0000	5.1125	1.4566	1.8036e-3
1954.0000	5.1177	1.4564	1.8121e-3
1952.0000	5.1230	1.4561	1.8206e-3
1950.0000	5.1282	1.4559	1.8293e-3
1948.0000	5.1335	1.4556	1.8382e-3
1946.0000	5.1387	1.4553	1.8471e-3
1944.0000	5.1440	1.4550	1.8561e-3
1942.0000	5.1493	1.4548	1.8653e-3
1940.0000	5.1546	1.4545	1.8746e-3
1938.0000	5.1600	1.4542	1.8840e-3
1936.0000	5.1653	1.4540	1.8936e-3
1934.0000	5.1706	1.4537	1.9033e-3
1932.0000	5.1760	1.4534	1.9131e-3
1930.0000	5.1813	1.4531	1.9231e-3
1928.0000	5.1867	1.4528	1.9332e-3
1926.0000	5.1921	1.4526	1.9434e-3
1924.0000	5.1975	1.4523	1.9538e-3
1922.0000	5.2029	1.4520	1.9644e-3
1920.0000	5.2083	1.4517	1.9751e-3
1918.0000	5.2138	1.4514	1.9860e-3
1916.0000	5.2192	1.4512	1.9971e-3
1914.0000	5.2247	1.4508	2.0083e-3
1912.0000	5.2301	1.4505	2.0197e-3
1910.0000	5.2356	1.4502	2.0313e-3
1908.0000	5.2411	1.4500	2.0431e-3
1906.0000	5.2466	1.4496	2.0550e-3
1904.0000	5.2521	1.4493	2.0672e-3
1902.0000	5.2576	1.4490	2.0796e-3
1900.0000	5.2632	1.4487	2.0921e-3
1898.0000	5.2687	1.4484	2.1049e-3
1896.0000	5.2743	1.4481	2.1179e-3
1894.0000	5.2798	1.4478	2.1312e-3
1892.0000	5.2854	1.4475	2.1447e-3
1890.0000	5.2910	1.4471	2.1584e-3
1888.0000	5.2966	1.4468	2.1724e-3
1886.0000	5.3022	1.4465	2.1867e-3
1884.0000	5.3079	1.4461	2.2012e-3
1882.0000	5.3135	1.4458	2.2160e-3
1880.0000	5.3191	1.4455	2.2311e-3
1878.0000	5.3248	1.4451	2.2465e-3
1876.0000	5.3305	1.4448	2.2622e-3
1874.0000	5.3362	1.4444	2.2782e-3
1872.0000	5.3419	1.4441	2.2945e-3
1870.0000	5.3476	1.4437	2.3112e-3
1868.0000	5.3533	1.4434	2.3283e-3
1866.0000	5.3591	1.4430	2.3457e-3
1864.0000	5.3648	1.4426	2.3635e-3
1862.0000	5.3706	1.4423	2.3817e-3
1860.0000	5.3763	1.4419	2.4004e-3
1858.0000	5.3821	1.4415	2.4194e-3
1856.0000	5.3879	1.4412	2.4389e-3
1854.0000	5.3937	1.4408	2.4589e-3
1852.0000	5.3996	1.4404	2.4794e-3
1850.0000	5.4054	1.4400	2.5003e-3
1848.0000	5.4113	1.4396	2.5218e-3
1846.0000	5.4171	1.4392	2.5439e-3
1844.0000	5.4230	1.4388	2.5665e-3
1842.0000	5.4289	1.4384	2.5898e-3
1840.0000	5.4348	1.4380	2.6136e-3
1838.0000	5.4407	1.4376	2.6381e-3
1836.0000	5.4466	1.4372	2.6634e-3
1834.0000	5.4526	1.4367	2.6893e-3
1832.0000	5.4585	1.4363	2.7160e-3
1830.0000	5.4645	1.4358	2.7435e-3
1828.0000	5.4705	1.4354	2.7719e-3
1826.0000	5.4765	1.4350	2.8011e-3
1824.0000	5.4825	1.4345	2.8312e-3
1822.0000	5.4885	1.4340	2.8623e-3
1820.0000	5.4945	1.4336	2.8945e-3
1818.0000	5.5006	1.4331	2.9277e-3
1816.0000	5.5066	1.4326	2.9621e-3
1814.0000	5.5127	1.4321	2.9977e-3
1812.0000	5.5188	1.4316	3.0346e-3
1810.0000	5.5249	1.4312	3.0728e-3
1808.0000	5.5310	1.4306	3.1124e-3
1806.0000	5.5371	1.4301	3.1536e-3
1804.0000	5.5432	1.4296	3.1964e-3
1802.0000	5.5494	1.4290	3.2409e-3
1800.0000	5.5556	1.4285	3.2872e-3
1798.0000	5.5617	1.4280	3.3355e-3
1796.0000	5.5679	1.4274	3.3858e-3
1794.0000	5.5741	1.4268	3.4384e-3
1792.0000	5.5804	1.4262	3.4934e-3
1790.0000	5.5866	1.4256	3.5508e-3
1788.0000	5.5928	1.4250	3.6111e-3
1786.0000	5.5991	1.4244	3.6742e-3
1784.0000	5.6054	1.4238	3.7405e-3
1782.0000	5.6117	1.4231	3.8102e-3
1780.0000	5.6180	1.4225	3.8835e-3
1778.0000	5.6243	1.4218	3.9608e-3
1776.0000	5.6306	1.4211	4.0424e-3
1774.0000	5.6370	1.4204	4.1286e-3
1772.0000	5.6433	1.4197	4.2199e-3
1770.0000	5.6497	1.4190	4.3167e-3
1768.0000	5.6561	1.4182	4.4194e-3
1766.0000	5.6625	1.4175	4.5288e-3
1764.0000	5.6689	1.4167	4.6452e-3
1762.0000	5.6754	1.4159	4.7696e-3
1760.0000	5.6818	1.4150	4.9026e-3
1758.0000	5.6883	1.4141	5.0452e-3
1756.0000	5.6948	1.4133	5.1983e-3
1754.0000	5.7013	1.4123	5.3632e-3
1752.0000	5.7078	1.4114	5.5343e-3
1750.0000	5.7143	1.4104	5.7255e-3
1748.0000	5.7208	1.4094	5.9510e-3
1746.0000	5.7274	1.4083	6.1773e-3
1744.0000	5.7339	1.4073	6.4046e-3
1742.0000	5.7405	1.4061	6.6997e-3
1740.0000	5.7471	1.4050	6.9958e-3
1738.0000	5.7537	1.4037	7.3265e-3
1736.0000	5.7604	1.4024	7.6918e-3
1734.0000	5.7670	1.4011	8.0919e-3
1732.0000	5.7737	1.3997	8.5267e-3
1730.0000	5.7803	1.3982	9.0297e-3
1728.0000	5.7870	1.3967	9.6011e-3
1726.0000	5.7937	1.3950	0.0102
1724.0000	5.8005	1.3933	0.0109
1722.0000	5.8072	1.3915	0.0118
1720.0000	5.8140	1.3895	0.0127
1718.0000	5.8207	1.3875	0.0138
1716.0000	5.8275	1.3853	0.0151
1714.0000	5.8343	1.3830	0.0166
1712.0000	5.8411	1.3806	0.0184
1710.0000	5.8480	1.3780	0.0205
1708.0000	5.8548	1.3753	0.0230
1706.0000	5.8617	1.3725	0.0261
1704.0000	5.8685	1.3697	0.0298
1702.0000	5.8754	1.3670	0.0343
1700.0000	5.8824	1.3645	0.0399
1698.0000	5.8893	1.3626	0.0465
1696.0000	5.8962	1.3618	0.0545
1694.0000	5.9032	1.3628	0.0637
1692.0000	5.9102	1.3663	0.0738
1690.0000	5.9172	1.3732	0.0835
1688.0000	5.9242	1.3838	0.0913
1686.0000	5.9312	1.3970	0.0954
1684.0000	5.9382	1.4108	0.0946
1682.0000	5.9453	1.4231	0.0891
1680.0000	5.9524	1.4320	0.0806
1678.0000	5.9595	1.4371	0.0709
1676.0000	5.9666	1.4389	0.0614
1674.0000	5.9737	1.4384	0.0530
1672.0000	5.9809	1.4363	0.0460
1670.0000	5.9880	1.4332	0.0402
1668.0000	5.9952	1.4295	0.0356
1666.0000	6.0024	1.4255	0.0320
1664.0000	6.0096	1.4212	0.0291
1662.0000	6.0168	1.4168	0.0270
1660.0000	6.0241	1.4122	0.0254
1658.0000	6.0314	1.4075	0.0243
1656.0000	6.0386	1.4026	0.0236
1654.0000	6.0459	1.3975	0.0234
1652.0000	6.0533	1.3920	0.0237
1650.0000	6.0606	1.3861	0.0244
1648.0000	6.0680	1.3797	0.0257
1646.0000	6.0753	1.3727	0.0277
1644.0000	6.0827	1.3648	0.0306
1642.0000	6.0901	1.3558	0.0348
1640.0000	6.0976	1.3456	0.0408
1638.0000	6.1050	1.3338	0.0495
1636.0000	6.1125	1.3202	0.0625
1634.0000	6.1200	1.3056	0.0823
1632.0000	6.1275	1.2925	0.1128
1630.0000	6.1350	1.2880	0.1576
1628.0000	6.1425	1.3050	0.2143
1626.0000	6.1501	1.3558	0.2687
1624.0000	6.1576	1.4401	0.2929
1622.0000	6.1652	1.5264	0.2625
1620.0000	6.1728	1.5721	0.1974
1618.0000	6.1805	1.5782	0.1382
1616.0000	6.1881	1.5672	0.0974
1614.0000	6.1958	1.5521	0.0711
1612.0000	6.2035	1.5376	0.0541
1610.0000	6.2112	1.5249	0.0426
1608.0000	6.2189	1.5141	0.0346
1606.0000	6.2267	1.5048	0.0289
1604.0000	6.2344	1.4969	0.0246
1602.0000	6.2422	1.4900	0.0213
1600.0000	6.2500	1.4840	0.0188
1598.0000	6.2578	1.4786	0.0168
1596.0000	6.2657	1.4739	0.0152
1594.0000	6.2735	1.4696	0.0139
1592.0000	6.2814	1.4657	0.0128
1590.0000	6.2893	1.4622	0.0119
1588.0000	6.2972	1.4590	0.0111
1586.0000	6.3052	1.4560	0.0105
1584.0000	6.3131	1.4532	9.9025e-3
1582.0000	6.3211	1.4506	9.4089e-3
1580.0000	6.3291	1.4481	8.9846e-3
1578.0000	6.3371	1.4458	8.6296e-3
1576.0000	6.3452	1.4437	8.3102e-3
1574.0000	6.3532	1.4416	8.0264e-3
1572.0000	6.3613	1.4397	7.7779e-3
1570.0000	6.3694	1.4377	7.5315e-3
1568.0000	6.3776	1.4360	7.3535e-3
1566.0000	6.3857	1.4342	7.1773e-3
1564.0000	6.3939	1.4325	7.0092e-3
1562.0000	6.4020	1.4309	6.8662e-3
1560.0000	6.4103	1.4294	6.7378e-3
1558.0000	6.4185	1.4278	6.6225e-3
1556.0000	6.4267	1.4264	6.5189e-3
1554.0000	6.4350	1.4249	6.4258e-3
1552.0000	6.4433	1.4235	6.3421e-3
1550.0000	6.4516	1.4221	6.2669e-3
1548.0000	6.4599	1.4208	6.1994e-3
1546.0000	6.4683	1.4195	6.1390e-3
1544.0000	6.4767	1.4182	6.0850e-3
1542.0000	6.4851	1.4169	6.0369e-3
1540.0000	6.4935	1.4156	5.9941e-3
1538.0000	6.5020	1.4144	5.9564e-3
1536.0000	6.5104	1.4132	5.9233e-3
1534.0000	6.5189	1.4119	5.8944e-3
1532.0000	6.5274	1.4108	5.8695e-3
1530.0000	6.5359	1.4096	5.8483e-3
1528.0000	6.5445	1.4084	5.8306e-3
1526.0000	6.5531	1.4072	5.8160e-3
1524.0000	6.5617	1.4060	5.8046e-3
1522.0000	6.5703	1.4049	5.7959e-3
1520.0000	6.5789	1.4038	5.7900e-3
1518.0000	6.5876	1.4026	5.7866e-3
1516.0000	6.5963	1.4015	5.7857e-3
1514.0000	6.6050	1.4004	5.7871e-3
1512.0000	6.6138	1.3992	5.7906e-3
1510.0000	6.6225	1.3981	5.7962e-3
1508.0000	6.6313	1.3970	5.8039e-3
1506.0000	6.6401	1.3958	5.8135e-3
1504.0000	6.6489	1.3947	5.8249e-3
1502.0000	6.6578	1.3936	5.8381e-3
1500.0000	6.6667	1.3925	5.8530e-3
1498.0000	6.6756	1.3914	5.8697e-3
1496.0000	6.6845	1.3902	5.8879e-3
1494.0000	6.6934	1.3891	5.9077e-3
1492.0000	6.7024	1.3880	5.9291e-3
1490.0000	6.7114	1.3869	5.9519e-3
1488.0000	6.7204	1.3857	5.9763e-3
1486.0000	6.7295	1.3846	6.0020e-3
1484.0000	6.7385	1.3835	6.0292e-3
1482.0000	6.7476	1.3823	6.0578e-3
1480.0000	6.7568	1.3812	6.0877e-3
1478.0000	6.7659	1.3800	6.1191e-3
1476.0000	6.7751	1.3789	6.1517e-3
1474.0000	6.7843	1.3777	6.1857e-3
1472.0000	6.7935	1.3766	6.2210e-3
1470.0000	6.8027	1.3754	6.2576e-3
1468.0000	6.8120	1.3742	6.2955e-3
1466.0000	6.8213	1.3730	6.3347e-3
1464.0000	6.8306	1.3718	6.3752e-3
1462.0000	6.8399	1.3706	6.4171e-3
1460.0000	6.8493	1.3694	6.4602e-3
1458.0000	6.8587	1.3682	6.5047e-3
1456.0000	6.8681	1.3669	6.5504e-3
1454.0000	6.8776	1.3657	6.5975e-3
1452.0000	6.8871	1.3645	6.6460e-3
1450.0000	6.8966	1.3632	6.6957e-3
1448.0000	6.9061	1.3619	6.7468e-3
1446.0000	6.9156	1.3606	6.7994e-3
1444.0000	6.9252	1.3594	6.8532e-3
1442.0000	6.9348	1.3580	6.9085e-3
1440.0000	6.9444	1.3567	6.9652e-3
1438.0000	6.9541	1.3554	7.0233e-3
1436.0000	6.9638	1.3541	7.0829e-3
1434.0000	6.9735	1.3527	7.1440e-3
1432.0000	6.9832	1.3514	7.2066e-3
1430.0000	6.9930	1.3500	7.2707e-3
1428.0000	7.0028	1.3486	7.3442e-3
1426.0000	7.0126	1.3472	7.4104e-3
1424.0000	7.0225	1.3457	7.4775e-3
1422.0000	7.0323	1.3443	7.5456e-3
1420.0000	7.0423	1.3429	7.6148e-3
1418.0000	7.0522	1.3414	7.6849e-3
1416.0000	7.0621	1.3399	7.7561e-3
1414.0000	7.0721	1.3384	7.8283e-3
1412.0000	7.0822	1.3369	7.9350e-3
1410.0000	7.0922	1.3354	8.0094e-3
1408.0000	7.1023	1.3338	8.0849e-3
1406.0000	7.1124	1.3322	8.1615e-3
1404.0000	7.1225	1.3306	8.2726e-3
1402.0000	7.1327	1.3290	8.3516e-3
1400.0000	7.1429	1.3274	8.4318e-3
1398.0000	7.1531	1.3257	8.5466e-3
1396.0000	7.1633	1.3241	8.6293e-3
1394.0000	7.1736	1.3223	8.7133e-3
1392.0000	7.1839	1.3207	8.8320e-3
1390.0000	7.1942	1.3189	8.9188e-3
1388.0000	7.2046	1.3171	9.0402e-3
1386.0000	7.2150	1.3154	9.1298e-3
1384.0000	7.2254	1.3135	9.2542e-3
1382.0000	7.2359	1.3117	9.3802e-3
1380.0000	7.2464	1.3098	9.4743e-3
1378.0000	7.2569	1.3079	9.6035e-3
1376.0000	7.2674	1.3060	9.7343e-3
1374.0000	7.2780	1.3040	9.8668e-3
1372.0000	7.2886	1.3020	0.0100
1370.0000	7.2993	1.3000	0.0101
1368.0000	7.3099	1.2980	0.0102
1366.0000	7.3206	1.2959	0.0104
1364.0000	7.3314	1.2938	0.0105
1362.0000	7.3421	1.2916	0.0107
1360.0000	7.3529	1.2894	0.0108
1358.0000	7.3638	1.2873	0.0110
1356.0000	7.3746	1.2850	0.0111
1354.0000	7.3855	1.2827	0.0113
1352.0000	7.3964	1.2804	0.0115
1350.0000	7.4074	1.2780	0.0116
1348.0000	7.4184	1.2756	0.0118
1346.0000	7.4294	1.2731	0.0120
1344.0000	7.4405	1.2706	0.0122
1342.0000	7.4516	1.2681	0.0124
1340.0000	7.4627	1.2655	0.0126
1338.0000	7.4738	1.2628	0.0128
1336.0000	7.4850	1.2601	0.0130
1334.0000	7.4963	1.2574	0.0132
1332.0000	7.5075	1.2546	0.0135
1330.0000	7.5188	1.2518	0.0137
1328.0000	7.5301	1.2488	0.0139
1326.0000	7.5415	1.2459	0.0142
1324.0000	7.5529	1.2428	0.0144
1322.0000	7.5643	1.2397	0.0147
1320.0000	7.5758	1.2366	0.0150
1318.0000	7.5873	1.2334	0.0153
1316.0000	7.5988	1.2301	0.0155
1314.0000	7.6104	1.2267	0.0159
1312.0000	7.6220	1.2232	0.0162
1310.0000	7.6336	1.2197	0.0165
1308.0000	7.6453	1.2161	0.0168
1306.0000	7.6570	1.2124	0.0172
1304.0000	7.6687	1.2087	0.0175
1302.0000	7.6805	1.2048	0.0179
1300.0000	7.6923	1.2008	0.0183
1298.0000	7.7042	1.1967	0.0187
1296.0000	7.7160	1.1926	0.0191
1294.0000	7.7280	1.1883	0.0196
1292.0000	7.7399	1.1840	0.0200
1290.0000	7.7519	1.1795	0.0205
1288.0000	7.7640	1.1749	0.0210
1286.0000	7.7760	1.1702	0.0215
1284.0000	7.7882	1.1653	0.0221
1282.0000	7.8003	1.1603	0.0226
1280.0000	7.8125	1.1552	0.0232
1278.0000	7.8247	1.1499	0.0238
1276.0000	7.8370	1.1444	0.0245
1274.0000	7.8493	1.1388	0.0252
1272.0000	7.8616	1.1330	0.0259
1270.0000	7.8740	1.1271	0.0266
1268.0000	7.8864	1.1209	0.0274
1266.0000	7.8989	1.1146	0.0283
1264.0000	7.9114	1.1080	0.0291
1262.0000	7.9239	1.1012	0.0300
1260.0000	7.9365	1.0942	0.0310
1258.0000	7.9491	1.0870	0.0321
1256.0000	7.9618	1.0795	0.0331
1254.0000	7.9745	1.0717	0.0343
1252.0000	7.9872	1.0636	0.0355
1250.0000	8.0000	1.0552	0.0368
1248.0000	8.0128	1.0465	0.0382
1246.0000	8.0257	1.0374	0.0397
1244.0000	8.0386	1.0280	0.0412
1242.0000	8.0515	1.0182	0.0429
1240.0000	8.0645	1.0079	0.0448
1238.0000	8.0775	0.9972	0.0467
1236.0000	8.0906	0.9860	0.0488
1234.0000	8.1037	0.9743	0.0511
1232.0000	8.1169	0.9621	0.0535
1230.0000	8.1301	0.9492	0.0562
1228.0000	8.1433	0.9357	0.0591
1226.0000	8.1566	0.9214	0.0623
1224.0000	8.1699	0.9064	0.0657
1222.0000	8.1833	0.8905	0.0696
1220.0000	8.1967	0.8737	0.0738
1218.0000	8.2102	0.8560	0.0786
1216.0000	8.2237	0.8370	0.0838
1214.0000	8.2372	0.8170	0.0898
1212.0000	8.2508	0.7955	0.0965
1210.0000	8.2645	0.7726	0.1042
1208.0000	8.2781	0.7480	0.1132
1206.0000	8.2919	0.7217	0.1236
1204.0000	8.3056	0.6935	0.1358
1202.0000	8.3195	0.6632	0.1504
1200.0000	8.3333	0.6309	0.1679
1198.0000	8.3472	0.5968	0.1893
1196.0000	8.3612	0.5613	0.2154
1194.0000	8.3752	0.5255	0.2469
1192.0000	8.3893	0.4908	0.2843
1190.0000	8.4034	0.4589	0.3270
1188.0000	8.4175	0.4309	0.3737
1186.0000	8.4317	0.4067	0.4229
1184.0000	8.4459	0.3855	0.4737
1182.0000	8.4602	0.3664	0.5262
1180.0000	8.4746	0.3491	0.5806
1178.0000	8.4890	0.3334	0.6379
1176.0000	8.5034	0.3200	0.6985
1174.0000	8.5179	0.3096	0.7628
1172.0000	8.5324	0.3034	0.8300
1170.0000	8.5470	0.3015	0.8995
1168.0000	8.5616	0.3035	0.9708
1166.0000	8.5763	0.3093	1.0438
1164.0000	8.5911	0.3186	1.1187
1162.0000	8.6059	0.3316	1.1960
1160.0000	8.6207	0.3485	1.2761
1158.0000	8.6356	0.3698	1.3596
1156.0000	8.6505	0.3964	1.4469
1154.0000	8.6655	0.4293	1.5388
1152.0000	8.6806	0.4702	1.6356
1150.0000	8.6957	0.5212	1.7376
1148.0000	8.7108	0.5853	1.8446
1146.0000	8.7260	0.6663	1.9555
1144.0000	8.7413	0.7691	2.0674
1142.0000	8.7566	0.8987	2.1743
1140.0000	8.7719	1.0586	2.2654
1138.0000	8.7873	1.2458	2.3256
1136.0000	8.8028	1.4462	2.3396
1134.0000	8.8183	1.6344	2.3033
1132.0000	8.8339	1.7839	2.2317
1130.0000	8.8496	1.8828	2.1576
1128.0000	8.8652	1.9463	2.1192
1126.0000	8.8810	2.0210	2.1377
1124.0000	8.8968	2.1700	2.1871
1122.0000	8.9127	2.4184	2.1696
1120.0000	8.9286	2.6496	1.9962
1118.0000	8.9445	2.7367	1.7764
1116.0000	8.9606	2.7458	1.6312
1114.0000	8.9767	2.7657	1.5533
1112.0000	8.9928	2.8313	1.4961
1110.0000	9.0090	2.9404	1.4101
1108.0000	9.0253	3.0537	1.2600
1106.0000	9.0416	3.1156	1.0566
1104.0000	9.0580	3.1052	0.8495
1102.0000	9.0744	3.0441	0.6759
1100.0000	9.0909	2.9610	0.5432
1098.0000	9.1075	2.8738	0.4445
1096.0000	9.1241	2.7907	0.3709
1094.0000	9.1408	2.7143	0.3151
1092.0000	9.1575	2.6451	0.2718
1090.0000	9.1743	2.5829	0.2376
1088.0000	9.1912	2.5267	0.2100
1086.0000	9.2081	2.4760	0.1875
1084.0000	9.2251	2.4300	0.1687
1082.0000	9.2421	2.3880	0.1530
1080.0000	9.2593	2.3497	0.1395
1078.0000	9.2764	2.3144	0.1280
1076.0000	9.2937	2.2820	0.1181
1074.0000	9.3110	2.2519	0.1094
1072.0000	9.3284	2.2241	0.1017
1070.0000	9.3458	2.1981	0.0949
1068.0000	9.3633	2.1739	0.0889
1066.0000	9.3809	2.1512	0.0835
1064.0000	9.3985	2.1299	0.0787
1062.0000	9.4162	2.1099	0.0743
1060.0000	9.4340	2.0910	0.0704
1058.0000	9.4518	2.0732	0.0667
1056.0000	9.4697	2.0564	0.0635
1054.0000	9.4877	2.0404	0.0605
1052.0000	9.5057	2.0252	0.0577
1050.0000	9.5238	2.0107	0.0552
1048.0000	9.5420	1.9970	0.0528
1046.0000	9.5602	1.9839	0.0507
1044.0000	9.5785	1.9714	0.0487
1042.0000	9.5969	1.9594	0.0469
1040.0000	9.6154	1.9479	0.0452
1038.0000	9.6339	1.9369	0.0436
1036.0000	9.6525	1.9263	0.0421
1034.0000	9.6712	1.9162	0.0407
1032.0000	9.6899	1.9064	0.0394
1030.0000	9.7087	1.8970	0.0382
1028.0000	9.7276	1.8880	0.0370
1026.0000	9.7466	1.8792	0.0360
1024.0000	9.7656	1.8708	0.0350
1022.0000	9.7847	1.8627	0.0341
1020.0000	9.8039	1.8548	0.0332
1018.0000	9.8232	1.8472	0.0323
1016.0000	9.8425	1.8398	0.0316
1014.0000	9.8619	1.8327	0.0308
1012.0000	9.8814	1.8257	0.0301
1010.0000	9.9010	1.8190	0.0295
1008.0000	9.9206	1.8125	0.0289
1006.0000	9.9404	1.8061	0.0283
1004.0000	9.9602	1.8000	0.0277
1002.0000	9.9800	1.7940	0.0272
1000.0000	10.0000	1.7881	0.0267
998.0000	10.0200	1.7824	0.0262
996.0000	10.0402	1.7769	0.0258
994.0000	10.0604	1.7715	0.0254
992.0000	10.0806	1.7662	0.0250
990.0000	10.1010	1.7610	0.0246
988.0000	10.1215	1.7560	0.0242
986.0000	10.1420	1.7511	0.0239
984.0000	10.1626	1.7463	0.0236
982.0000	10.1833	1.7416	0.0233
980.0000	10.2041	1.7370	0.0230
978.0000	10.2249	1.7325	0.0227
976.0000	10.2459	1.7281	0.0225
974.0000	10.2669	1.7237	0.0222
972.0000	10.2881	1.7195	0.0220
970.0000	10.3093	1.7154	0.0218
968.0000	10.3306	1.7113	0.0216
966.0000	10.3520	1.7073	0.0214
964.0000	10.3734	1.7033	0.0212
962.0000	10.3950	1.6995	0.0210
960.0000	10.4167	1.6957	0.0209
958.0000	10.4384	1.6919	0.0207
956.0000	10.4603	1.6883	0.0206
954.0000	10.4822	1.6847	0.0205
952.0000	10.5042	1.6811	0.0203
950.0000	10.5263	1.6776	0.0202
948.0000	10.5485	1.6742	0.0201
946.0000	10.5708	1.6708	0.0200
944.0000	10.5932	1.6674	0.0199
942.0000	10.6157	1.6641	0.0199
940.0000	10.6383	1.6608	0.0198
938.0000	10.6610	1.6576	0.0197
936.0000	10.6838	1.6544	0.0197
934.0000	10.7066	1.6513	0.0196
932.0000	10.7296	1.6482	0.0196
930.0000	10.7527	1.6452	0.0195
928.0000	10.7759	1.6421	0.0195
926.0000	10.7991	1.6391	0.0195
924.0000	10.8225	1.6361	0.0195
922.0000	10.8460	1.6332	0.0195
920.0000	10.8696	1.6303	0.0195
918.0000	10.8932	1.6275	0.0194
916.0000	10.9170	1.6246	0.0194
914.0000	10.9409	1.6218	0.0194
912.0000	10.9649	1.6190	0.0195
910.0000	10.9890	1.6162	0.0195
908.0000	11.0132	1.6135	0.0195
906.0000	11.0375	1.6108	0.0195
904.0000	11.0619	1.6081	0.0195
902.0000	11.0865	1.6053	0.0196
900.0000	11.1111	1.6027	0.0197
898.0000	11.1359	1.6000	0.0197
896.0000	11.1607	1.5974	0.0198
894.0000	11.1857	1.5948	0.0198
892.0000	11.2108	1.5922	0.0199
890.0000	11.2360	1.5896	0.0200
888.0000	11.2613	1.5870	0.0200
886.0000	11.2867	1.5845	0.0201
884.0000	11.3122	1.5819	0.0202
882.0000	11.3379	1.5794	0.0203
880.0000	11.3636	1.5768	0.0204
878.0000	11.3895	1.5743	0.0205
876.0000	11.4155	1.5718	0.0206
874.0000	11.4416	1.5693	0.0207
872.0000	11.4679	1.5668	0.0208
870.0000	11.4943	1.5643	0.0209
868.0000	11.5207	1.5618	0.0210
866.0000	11.5473	1.5593	0.0212
864.0000	11.5741	1.5569	0.0213
862.0000	11.6009	1.5544	0.0214
860.0000	11.6279	1.5519	0.0216
858.0000	11.6550	1.5494	0.0218
856.0000	11.6822	1.5470	0.0219
854.0000	11.7096	1.5445	0.0220
852.0000	11.7371	1.5420	0.0222
850.0000	11.7647	1.5395	0.0224
848.0000	11.7925	1.5371	0.0226
846.0000	11.8203	1.5346	0.0227
844.0000	11.8483	1.5321	0.0230
842.0000	11.8765	1.5296	0.0231
840.0000	11.9048	1.5271	0.0233
838.0000	11.9332	1.5246	0.0235
836.0000	11.9617	1.5221	0.0238
834.0000	11.9904	1.5196	0.0240
832.0000	12.0192	1.5171	0.0242
830.0000	12.0482	1.5145	0.0245
828.0000	12.0773	1.5120	0.0247
826.0000	12.1065	1.5094	0.0249
824.0000	12.1359	1.5069	0.0252
822.0000	12.1655	1.5043	0.0255
820.0000	12.1951	1.5017	0.0257
818.0000	12.2249	1.4991	0.0260
816.0000	12.2549	1.4964	0.0263
814.0000	12.2850	1.4938	0.0266
812.0000	12.3153	1.4911	0.0268
810.0000	12.3457	1.4884	0.0272
808.0000	12.3762	1.4857	0.0275
806.0000	12.4069	1.4830	0.0278
804.0000	12.4378	1.4803	0.0282
802.0000	12.4688	1.4775	0.0285
800.0000	12.5000	1.4747	0.0289
798.0000	12.5313	1.4719	0.0293
796.0000	12.5628	1.4690	0.0296
794.0000	12.5945	1.4661	0.0300
792.0000	12.6263	1.4632	0.0304
790.0000	12.6582	1.4603	0.0308
788.0000	12.6904	1.4573	0.0313
786.0000	12.7226	1.4543	0.0317
784.0000	12.7551	1.4513	0.0322
782.0000	12.7877	1.4482	0.0326
780.0000	12.8205	1.4451	0.0331
778.0000	12.8535	1.4418	0.0336
776.0000	12.8866	1.4387	0.0341
774.0000	12.9199	1.4354	0.0347
772.0000	12.9534	1.4321	0.0352
770.0000	12.9870	1.4287	0.0358
768.0000	13.0208	1.4253	0.0364
766.0000	13.0548	1.4218	0.0370
764.0000	13.0890	1.4182	0.0376
762.0000	13.1234	1.4146	0.0383
760.0000	13.1579	1.4109	0.0389
758.0000	13.1926	1.4072	0.0396
756.0000	13.2275	1.4034	0.0404
754.0000	13.2626	1.3995	0.0412
752.0000	13.2979	1.3955	0.0419
750.0000	13.3333	1.3914	0.0427
748.0000	13.3690	1.3872	0.0436
746.0000	13.4048	1.3829	0.0445
744.0000	13.4409	1.3785	0.0454
742.0000	13.4771	1.3740	0.0464
740.0000	13.5135	1.3693	0.0474
738.0000	13.5501	1.3645	0.0485
736.0000	13.5870	1.3596	0.0496
734.0000	13.6240	1.3545	0.0507
732.0000	13.6612	1.3493	0.0520
730.0000	13.6986	1.3438	0.0533
728.0000	13.7363	1.3382	0.0547
726.0000	13.7741	1.3324	0.0562
724.0000	13.8122	1.3263	0.0577
722.0000	13.8504	1.3199	0.0594
720.0000	13.8889	1.3133	0.0612
718.0000	13.9276	1.3064	0.0631
716.0000	13.9665	1.2991	0.0652
714.0000	14.0056	1.2914	0.0674
712.0000	14.0449	1.2833	0.0698
710.0000	14.0845	1.2746	0.0725
708.0000	14.1243	1.2655	0.0755
706.0000	14.1643	1.2557	0.0788
704.0000	14.2045	1.2451	0.0825
702.0000	14.2450	1.2337	0.0868
700.0000	14.2857	1.2213	0.0916
698.0000	14.3266	1.2077	0.0974
696.0000	14.3678	1.1928	0.1042
694.0000	14.4092	1.1761	0.1126
692.0000	14.4509	1.1575	0.1231
690.0000	14.4928	1.1367	0.1366
688.0000	14.5349	1.1135	0.1547
686.0000	14.5773	1.0885	0.1794
684.0000	14.6199	1.0637	0.2132
682.0000	14.6628	1.0428	0.2576
680.0000	14.7059	1.0300	0.3118
678.0000	14.7493	1.0281	0.3741
676.0000	14.7929	1.0395	0.4437
674.0000	14.8368	1.0691	0.5206
672.0000	14.8810	1.1270	0.6031
670.0000	14.9254	1.2307	0.6782
668.0000	14.9701	1.3912	0.7031
666.0000	15.0150	1.5534	0.6179
664.0000	15.0602	1.6173	0.4670
662.0000	15.1057	1.5974	0.3472
660.0000	15.1515	1.5515	0.2748
658.0000	15.1976	1.5048	0.2336
656.0000	15.2439	1.4632	0.2103
654.0000	15.2905	1.4269	0.1977
652.0000	15.3374	1.3952	0.1916
650.0000	15.3846	1.3669	0.1900
648.0000	15.4321	1.3413	0.1916
646.0000	15.4799	1.3178	0.1957
644.0000	15.5280	1.2959	0.2020
642.0000	15.5763	1.2752	0.2101
640.0000	15.6250	1.2555	0.2201
638.0000	15.6740	1.2367	0.2319
636.0000	15.7233	1.2186	0.2455
634.0000	15.7729	1.2012	0.2612
632.0000	15.8228	1.1846	0.2789
630.0000	15.8730	1.1690	0.2989
628.0000	15.9236	1.1544	0.3215
626.0000	15.9744	1.1412	0.3466
624.0000	16.0256	1.1298	0.3747
622.0000	16.0772	1.1208	0.4057
620.0000	16.1290	1.1146	0.4397
618.0000	16.1812	1.1121	0.4765
616.0000	16.2338	1.1140	0.5160
614.0000	16.2866	1.1212	0.5574
612.0000	16.3399	1.1344	0.6003
610.0000	16.3934	1.1544	0.6438
608.0000	16.4474	1.1818	0.6868
606.0000	16.5017	1.2173	0.7278
604.0000	16.5563	1.2614	0.7653
602.0000	16.6113	1.3144	0.7967
600.0000	16.6667	1.3758	0.8193
598.0000	16.7224	1.4438	0.8297
596.0000	16.7785	1.5149	0.8249
594.0000	16.8350	1.5839	0.8030
592.0000	16.8919	1.6445	0.7654
590.0000	16.9492	1.6915	0.7165
588.0000	17.0068	1.7228	0.6623
586.0000	17.0648	1.7394	0.6086
584.0000	17.1233	1.7443	0.5590
582.0000	17.1821	1.7407	0.5157
580.0000	17.2414	1.7315	0.4790
578.0000	17.3010	1.7189	0.4485
576.0000	17.3611	1.7046	0.4237
574.0000	17.4216	1.6896	0.4038
572.0000	17.4825	1.6745	0.3880
570.0000	17.5439	1.6600	0.3756
568.0000	17.6056	1.6463	0.3661
566.0000	17.6678	1.6335	0.3590
564.0000	17.7305	1.6217	0.3538
562.0000	17.7936	1.6110	0.3502
560.0000	17.8571	1.6014	0.3479
558.0000	17.9211	1.5929	0.3465
556.0000	17.9856	1.5855	0.3459
554.0000	18.0505	1.5790	0.3458
552.0000	18.1159	1.5734	0.3462
550.0000	18.1818	1.5687	0.3466
548.0000	18.2482	1.5646	0.3472
546.0000	18.3150	1.5612	0.3477
544.0000	18.3824	1.5582	0.3481
542.0000	18.4502	1.5557	0.3484
540.0000	18.5185	1.5535	0.3485
538.0000	18.5874	1.5514	0.3484
536.0000	18.6567	1.5494	0.3482
534.0000	18.7266	1.5474	0.3477
532.0000	18.7970	1.5454	0.3472
530.0000	18.8679	1.5433	0.3465
528.0000	18.9394	1.5410	0.3458
526.0000	19.0114	1.5385	0.3452
524.0000	19.0840	1.5359	0.3446
522.0000	19.1571	1.5331	0.3442
520.0000	19.2308	1.5300	0.3440
518.0000	19.3050	1.5269	0.3440
516.0000	19.3798	1.5236	0.3442
514.0000	19.4553	1.5203	0.3448
512.0000	19.5313	1.5168	0.3456
510.0000	19.6078	1.5134	0.3468
508.0000	19.6850	1.5100	0.3484
506.0000	19.7628	1.5066	0.3503
504.0000	19.8413	1.5033	0.3525
502.0000	19.9203	1.5003	0.3551
500.0000	20.0000	1.4973	0.3580
498.0000	20.0803	1.4947	0.3611
496.0000	20.1613	1.4922	0.3646
494.0000	20.2429	1.4901	0.3683
492.0000	20.3252	1.4882	0.3723
490.0000	20.4082	1.4866	0.3764
488.0000	20.4918	1.4854	0.3807
486.0000	20.5761	1.4846	0.3851
484.0000	20.6612	1.4842	0.3895
482.0000	20.7469	1.4841	0.3941
480.0000	20.8333	1.4845	0.3986
478.0000	20.9205	1.4852	0.4031
476.0000	21.0084	1.4864	0.4075
474.0000	21.0970	1.4879	0.4118
472.0000	21.1864	1.4898	0.4158
470.0000	21.2766	1.4921	0.4197
468.0000	21.3675	1.4947	0.4233
466.0000	21.4592	1.4976	0.4265
464.0000	21.5517	1.5007	0.4294
462.0000	21.6450	1.5041	0.4319
460.0000	21.7391	1.5076	0.4340
458.0000	21.8341	1.5113	0.4356
456.0000	21.9298	1.5150	0.4368
454.0000	22.0264	1.5187	0.4375
452.0000	22.1239	1.5223	0.4377
450.0000	22.2222	1.5257	0.4375
448.0000	22.3214	1.5290	0.4368
446.0000	22.4215	1.5320	0.4357
444.0000	22.5225	1.5346	0.4343
442.0000	22.6244	1.5370	0.4325
440.0000	22.7273	1.5389	0.4305
438.0000	22.8311	1.5404	0.4282
436.0000	22.9358	1.5414	0.4259
434.0000	23.0415	1.5420	0.4235
432.0000	23.1481	1.5422	0.4210
430.0000	23.2558	1.5420	0.4185
428.0000	23.3645	1.5414	0.4161
426.0000	23.4742	1.5404	0.4137
424.0000	23.5849	1.5390	0.4115
422.0000	23.6967	1.5374	0.4094
420.0000	23.8095	1.5354	0.4075
418.0000	23.9234	1.5332	0.4057
416.0000	24.0385	1.5307	0.4040
414.0000	24.1546	1.5279	0.4026
412.0000	24.2718	1.5248	0.4012
410.0000	24.3902	1.5215	0.4001
408.0000	24.5098	1.5180	0.3991
406.0000	24.6305	1.5141	0.3984
404.0000	24.7525	1.5101	0.3979
402.0000	24.8756	1.5058	0.3976
400.0000	25.0000	1.5012	0.3976
398.0000	25.1256	1.4965	0.3979
396.0000	25.2525	1.4915	0.3984
394.0000	25.3807	1.4864	0.3994
392.0000	25.5102	1.4811	0.4006
390.0000	25.6410	1.4757	0.4022
388.0000	25.7732	1.4701	0.4041
386.0000	25.9067	1.4644	0.4064
384.0000	26.0417	1.4588	0.4091
382.0000	26.1780	1.4531	0.4121
380.0000	26.3158	1.4473	0.4155
378.0000	26.4550	1.4416	0.4192
376.0000	26.5957	1.4359	0.4232
374.0000	26.7380	1.4302	0.4275
372.0000	26.8817	1.4246	0.4321
370.0000	27.0270	1.4189	0.4370
368.0000	27.1739	1.4133	0.4422
366.0000	27.3224	1.4077	0.4476
364.0000	27.4725	1.4022	0.4532
362.0000	27.6243	1.3965	0.4591
360.0000	27.7778	1.3909	0.4652
358.0000	27.9330	1.3852	0.4717
356.0000	28.0899	1.3794	0.4783
354.0000	28.2486	1.3734	0.4852
352.0000	28.4091	1.3674	0.4924
350.0000	28.5714	1.3611	0.5001
348.0000	28.7356	1.3545	0.5081
346.0000	28.9017	1.3477	0.5166
344.0000	29.0698	1.3405	0.5258
342.0000	29.2398	1.3331	0.5357
340.0000	29.4118	1.3253	0.5466
338.0000	29.5858	1.3173	0.5584
336.0000	29.7619	1.3091	0.5716
334.0000	29.9401	1.3008	0.5863
332.0000	30.1205	1.2926	0.6027
330.0000	30.3030	1.2849	0.6212
328.0000	30.4878	1.2781	0.6419
326.0000	30.6748	1.2727	0.6648
324.0000	30.8642	1.2693	0.6901
322.0000	31.0559	1.2686	0.7176
320.0000	31.2500	1.2713	0.7468
318.0000	31.4465	1.2781	0.7772
316.0000	31.6456	1.2897	0.8080
314.0000	31.8471	1.3064	0.8382
312.0000	32.0513	1.3287	0.8664
310.0000	32.2581	1.3565	0.8911
308.0000	32.4675	1.3892	0.9104
306.0000	32.6797	1.4254	0.9226
304.0000	32.8947	1.4630	0.9265
302.0000	33.1126	1.4993	0.9215
300.0000	33.3333	1.5315	0.9085
298.0000	33.5570	1.5575	0.8891
296.0000	33.7838	1.5760	0.8658
294.0000	34.0136	1.5869	0.8408
292.0000	34.2466	1.5905	0.8161
290.0000	34.4828	1.5877	0.7931
288.0000	34.7222	1.5796	0.7727
286.0000	34.9650	1.5670	0.7556
284.0000	35.2113	1.5509	0.7420
282.0000	35.4610	1.5320	0.7322
280.0000	35.7143	1.5108	0.7262
278.0000	35.9712	1.4880	0.7239
276.0000	36.2319	1.4638	0.7255
274.0000	36.4964	1.4387	0.7308
272.0000	36.7647	1.4131	0.7399
270.0000	37.0370	1.3871	0.7528
268.0000	37.3134	1.3611	0.7694
266.0000	37.5940	1.3353	0.7898
264.0000	37.8788	1.3101	0.8142
262.0000	38.1679	1.2857	0.8426
260.0000	38.4615	1.2625	0.8749
258.0000	38.7597	1.2407	0.9113
256.0000	39.0625	1.2208	0.9519
254.0000	39.3701	1.2032	0.9967
252.0000	39.6825	1.1884	1.0460
250.0000	40.0000	1.1771	1.0996
248.0000	40.3226	1.1701	1.1577
246.0000	40.6504	1.1682	1.2199
244.0000	40.9836	1.1724	1.2856
242.0000	41.3223	1.1833	1.3544
240.0000	41.6667	1.2015	1.4252
238.0000	42.0168	1.2277	1.4973
236.0000	42.3729	1.2621	1.5699
234.0000	42.7350	1.3053	1.6420
232.0000	43.1034	1.3577	1.7126
230.0000	43.4783	1.4197	1.7804
228.0000	43.8596	1.4917	1.8439
226.0000	44.2478	1.5737	1.9010
224.0000	44.6429	1.6653	1.9494
222.0000	45.0450	1.7650	1.9867
220.0000	45.4545	1.8708	2.0109
218.0000	45.8716	1.9798	2.0209
216.0000	46.2963	2.0897	2.0167
214.0000	46.7290	2.1995	1.9978
212.0000	47.1698	2.3081	1.9615
210.0000	47.6190	2.4101	1.9023
208.0000	48.0769	2.4918	1.8185
206.0000	48.5437	2.5370	1.7209
204.0000	49.0196	2.5395	1.6329
202.0000	49.5050	2.5106	1.5783
200.0000	50.0000	2.4726	1.5703
198.0000	50.5051	2.4520	1.6115
196.0000	51.0204	2.4807	1.6948
194.0000	51.5464	2.6037	1.7883
192.0000	52.0833	2.8406	1.7800
190.0000	52.6316	3.0161	1.5705
188.0000	53.1915	2.9943	1.3551
186.0000	53.7634	2.9049	1.2511
184.0000	54.3478	2.8309	1.2237
182.0000	54.9451	2.7916	1.2344
180.0000	55.5556	2.7888	1.2587
178.0000	56.1798	2.8182	1.2783
176.0000	56.8182	2.8701	1.2799
174.0000	57.4713	2.9303	1.2574
172.0000	58.1395	2.9859	1.2139
170.0000	58.8235	3.0308	1.1570
168.0000	59.5238	3.0645	1.0929
166.0000	60.2410	3.0881	1.0241
164.0000	60.9756	3.1013	0.9520
162.0000	61.7284	3.1029	0.8783
160.0000	62.5000	3.0926	0.8059
158.0000	63.2911	3.0709	0.7379
156.0000	64.1026	3.0397	0.6766
154.0000	64.9351	3.0012	0.6233
152.0000	65.7895	2.9574	0.5783
150.0000	66.6667	2.9096	0.5416
148.0000	67.5676	2.8587	0.5129
146.0000	68.4932	2.8051	0.4919
144.0000	69.4444	2.7487	0.4791
142.0000	70.4225	2.6892	0.4750
140.0000	71.4286	2.6263	0.4815
138.0000	72.4638	2.5600	0.5014
136.0000	73.5294	2.4918	0.5390
134.0000	74.6269	2.4260	0.5994
132.0000	75.7576	2.3706	0.6862
130.0000	76.9231	2.3348	0.7991
128.0000	78.1250	2.3272	0.9364
126.0000	79.3651	2.3575	1.0975
124.0000	80.6452	2.4442	1.2826
122.0000	81.9672	2.6250	1.4813
120.0000	83.3333	2.9584	1.6314
118.0000	84.7458	3.4253	1.5542
116.0000	86.2069	3.7354	1.1732
114.0000	87.7193	3.7470	0.7867
112.0000	89.2857	3.6386	0.5427
110.0000	90.9091	3.5198	0.4007
108.0000	92.5926	3.4169	0.3145
106.0000	94.3396	3.3318	0.2586
104.0000	96.1538	3.2612	0.2202
102.0000	98.0392	3.2021	0.1925
100.0000	100.0000	3.1520	0.1715
98.0000	102.0408	3.1088	0.1551
96.0000	104.1667	3.0711	0.1418
94.0000	106.3830	3.0379	0.1309
92.0000	108.6957	3.0084	0.1216
90.0000	111.1111	2.9819	0.1136
88.0000	113.6364	2.9579	0.1065
86.0000	116.2791	2.9361	0.1003
84.0000	119.0476	2.9163	0.0948
82.0000	121.9512	2.8980	0.0897
80.0000	125.0000	2.8811	0.0851
78.0000	128.2051	2.8655	0.0808
76.0000	131.5789	2.8511	0.0769
74.0000	135.1351	2.8376	0.0732
72.0000	138.8889	2.8250	0.0698
70.0000	142.8571	2.8133	0.0665
68.0000	147.0588	2.8023	0.0634
66.0000	151.5152	2.7919	0.0605
64.0000	156.2500	2.7822	0.0577
62.0000	161.2903	2.7731	0.0551
60.0000	166.6667	2.7645	0.0525
58.0000	172.4138	2.7565	0.0501
56.0000	178.5714	2.7489	0.0477
54.0000	185.1852	2.7417	0.0455
52.0000	192.3077	2.7349	0.0433
50.0000	200.0000	2.7286	0.0412
48.0000	208.3333	2.7226	0.0391
46.0000	217.3913	2.7170	0.0371
44.0000	227.2727	2.7116	0.0352
42.0000	238.0952	2.7067	0.0333
40.0000	250.0000	2.7020	0.0315
38.0000	263.1579	2.6976	0.0297
36.0000	277.7778	2.6935	0.0279
34.0000	294.1176	2.6896	0.0262
32.0000	312.5000	2.6861	0.0245
30.0000	333.3333	2.6827	0.0228