Optical constants of Gypsum, calculated from oscillator parameters
listed in Long et al. (1993) Infrared Physics, Vol. 34, No. 2,
191-201.  gypsum E||X
Wave.          Freq.
(microns)    (cm-1)        n            k
2.5000	4000.0000	1.6048	2.0888e-4
2.5025	3996.0000	1.6048	2.0953e-4
2.5050	3992.0000	1.6047	2.1018e-4
2.5075	3988.0000	1.6047	2.1083e-4
2.5100	3984.0000	1.6047	2.1149e-4
2.5126	3980.0000	1.6046	2.1215e-4
2.5151	3976.0000	1.6046	2.1281e-4
2.5176	3972.0000	1.6046	2.1347e-4
2.5202	3968.0000	1.6045	2.1414e-4
2.5227	3964.0000	1.6045	2.1481e-4
2.5253	3960.0000	1.6045	2.1549e-4
2.5278	3956.0000	1.6044	2.1616e-4
2.5304	3952.0000	1.6044	2.1684e-4
2.5329	3948.0000	1.6044	2.1752e-4
2.5355	3944.0000	1.6043	2.1821e-4
2.5381	3940.0000	1.6043	2.1889e-4
2.5407	3936.0000	1.6043	2.1959e-4
2.5432	3932.0000	1.6042	2.2028e-4
2.5458	3928.0000	1.6042	2.2097e-4
2.5484	3924.0000	1.6042	2.2167e-4
2.5510	3920.0000	1.6041	2.2238e-4
2.5536	3916.0000	1.6041	2.2308e-4
2.5562	3912.0000	1.6041	2.2379e-4
2.5589	3908.0000	1.6040	2.2450e-4
2.5615	3904.0000	1.6040	2.2522e-4
2.5641	3900.0000	1.6040	2.2593e-4
2.5667	3896.0000	1.6039	2.2665e-4
2.5694	3892.0000	1.6039	2.2738e-4
2.5720	3888.0000	1.6039	2.2811e-4
2.5747	3884.0000	1.6038	2.2884e-4
2.5773	3880.0000	1.6038	2.2957e-4
2.5800	3876.0000	1.6038	2.3030e-4
2.5826	3872.0000	1.6037	2.3104e-4
2.5853	3868.0000	1.6037	2.3179e-4
2.5880	3864.0000	1.6036	2.3253e-4
2.5907	3860.0000	1.6036	2.3328e-4
2.5934	3856.0000	1.6036	2.3403e-4
2.5961	3852.0000	1.6035	2.3479e-4
2.5988	3848.0000	1.6035	2.3555e-4
2.6015	3844.0000	1.6035	2.3631e-4
2.6042	3840.0000	1.6034	2.3708e-4
2.6069	3836.0000	1.6034	2.3785e-4
2.6096	3832.0000	1.6034	2.3862e-4
2.6123	3828.0000	1.6033	2.3939e-4
2.6151	3824.0000	1.6033	2.4017e-4
2.6178	3820.0000	1.6032	2.4096e-4
2.6205	3816.0000	1.6032	2.4174e-4
2.6233	3812.0000	1.6032	2.4253e-4
2.6261	3808.0000	1.6031	2.4332e-4
2.6288	3804.0000	1.6031	2.4412e-4
2.6316	3800.0000	1.6031	2.4492e-4
2.6344	3796.0000	1.6030	2.4572e-4
2.6371	3792.0000	1.6030	2.4653e-4
2.6399	3788.0000	1.6029	2.4734e-4
2.6427	3784.0000	1.6029	2.4815e-4
2.6455	3780.0000	1.6029	2.4897e-4
2.6483	3776.0000	1.6028	2.4979e-4
2.6511	3772.0000	1.6028	2.5062e-4
2.6539	3768.0000	1.6027	2.5145e-4
2.6567	3764.0000	1.6027	2.5228e-4
2.6596	3760.0000	1.6027	2.5312e-4
2.6624	3756.0000	1.6026	2.5396e-4
2.6652	3752.0000	1.6026	2.5480e-4
2.6681	3748.0000	1.6026	2.5565e-4
2.6709	3744.0000	1.6025	2.5650e-4
2.6738	3740.0000	1.6025	2.5735e-4
2.6767	3736.0000	1.6024	2.5821e-4
2.6795	3732.0000	1.6024	2.5908e-4
2.6824	3728.0000	1.6024	2.5994e-4
2.6853	3724.0000	1.6023	2.6081e-4
2.6882	3720.0000	1.6023	2.6169e-4
2.6911	3716.0000	1.6022	2.6257e-4
2.6940	3712.0000	1.6022	2.6345e-4
2.6969	3708.0000	1.6021	2.6434e-4
2.6998	3704.0000	1.6021	2.6523e-4
2.7027	3700.0000	1.6021	2.6612e-4
2.7056	3696.0000	1.6020	2.6702e-4
2.7086	3692.0000	1.6020	2.6792e-4
2.7115	3688.0000	1.6019	2.6883e-4
2.7144	3684.0000	1.6019	2.6974e-4
2.7174	3680.0000	1.6019	2.7066e-4
2.7203	3676.0000	1.6018	2.7157e-4
2.7233	3672.0000	1.6018	2.7250e-4
2.7263	3668.0000	1.6017	2.7343e-4
2.7293	3664.0000	1.6017	2.7436e-4
2.7322	3660.0000	1.6016	2.7529e-4
2.7352	3656.0000	1.6016	2.7624e-4
2.7382	3652.0000	1.6016	2.7718e-4
2.7412	3648.0000	1.6015	2.7813e-4
2.7442	3644.0000	1.6015	2.7908e-4
2.7473	3640.0000	1.6014	2.8004e-4
2.7503	3636.0000	1.6014	2.8101e-4
2.7533	3632.0000	1.6013	2.8197e-4
2.7563	3628.0000	1.6013	2.8294e-4
2.7594	3624.0000	1.6013	2.8392e-4
2.7624	3620.0000	1.6012	2.8490e-4
2.7655	3616.0000	1.6012	2.8589e-4
2.7685	3612.0000	1.6011	2.8688e-4
2.7716	3608.0000	1.6011	2.8787e-4
2.7747	3604.0000	1.6010	2.8887e-4
2.7778	3600.0000	1.6010	2.8987e-4
2.7809	3596.0000	1.6009	2.9088e-4
2.7840	3592.0000	1.6009	2.9190e-4
2.7871	3588.0000	1.6008	2.9291e-4
2.7902	3584.0000	1.6008	2.9394e-4
2.7933	3580.0000	1.6008	2.9497e-4
2.7964	3576.0000	1.6007	2.9600e-4
2.7996	3572.0000	1.6007	2.9704e-4
2.8027	3568.0000	1.6006	2.9808e-4
2.8058	3564.0000	1.6006	2.9913e-4
2.8090	3560.0000	1.6005	3.0018e-4
2.8121	3556.0000	1.6005	3.0124e-4
2.8153	3552.0000	1.6004	3.0230e-4
2.8185	3548.0000	1.6004	3.0337e-4
2.8217	3544.0000	1.6003	3.0444e-4
2.8249	3540.0000	1.6003	3.0552e-4
2.8281	3536.0000	1.6002	3.0660e-4
2.8313	3532.0000	1.6002	3.0769e-4
2.8345	3528.0000	1.6001	3.0878e-4
2.8377	3524.0000	1.6001	3.0988e-4
2.8409	3520.0000	1.6000	3.1098e-4
2.8441	3516.0000	1.6000	3.1209e-4
2.8474	3512.0000	1.5999	3.1321e-4
2.8506	3508.0000	1.5999	3.1433e-4
2.8539	3504.0000	1.5998	3.1545e-4
2.8571	3500.0000	1.5998	3.1658e-4
2.8604	3496.0000	1.5998	3.1772e-4
2.8637	3492.0000	1.5997	3.1886e-4
2.8670	3488.0000	1.5997	3.2001e-4
2.8703	3484.0000	1.5996	3.2116e-4
2.8736	3480.0000	1.5995	3.2232e-4
2.8769	3476.0000	1.5995	3.2348e-4
2.8802	3472.0000	1.5994	3.2465e-4
2.8835	3468.0000	1.5994	3.2583e-4
2.8868	3464.0000	1.5993	3.2701e-4
2.8902	3460.0000	1.5993	3.2820e-4
2.8935	3456.0000	1.5992	3.2939e-4
2.8969	3452.0000	1.5992	3.3059e-4
2.9002	3448.0000	1.5991	3.3179e-4
2.9036	3444.0000	1.5991	3.3301e-4
2.9070	3440.0000	1.5990	3.3422e-4
2.9104	3436.0000	1.5990	3.3545e-4
2.9138	3432.0000	1.5989	3.3667e-4
2.9172	3428.0000	1.5989	3.3791e-4
2.9206	3424.0000	1.5988	3.3915e-4
2.9240	3420.0000	1.5988	3.4040e-4
2.9274	3416.0000	1.5987	3.4165e-4
2.9308	3412.0000	1.5987	3.4291e-4
2.9343	3408.0000	1.5986	3.4418e-4
2.9377	3404.0000	1.5986	3.4545e-4
2.9412	3400.0000	1.5985	3.4673e-4
2.9446	3396.0000	1.5984	3.4801e-4
2.9481	3392.0000	1.5984	3.4930e-4
2.9516	3388.0000	1.5983	3.5060e-4
2.9551	3384.0000	1.5983	3.5191e-4
2.9586	3380.0000	1.5982	3.5322e-4
2.9621	3376.0000	1.5982	3.5454e-4
2.9656	3372.0000	1.5981	3.5586e-4
2.9691	3368.0000	1.5981	3.5719e-4
2.9727	3364.0000	1.5980	3.5853e-4
2.9762	3360.0000	1.5979	3.5987e-4
2.9797	3356.0000	1.5979	3.6123e-4
2.9833	3352.0000	1.5978	3.6258e-4
2.9869	3348.0000	1.5978	3.6395e-4
2.9904	3344.0000	1.5977	3.6532e-4
2.9940	3340.0000	1.5977	3.6670e-4
2.9976	3336.0000	1.5976	3.6809e-4
3.0012	3332.0000	1.5975	3.6948e-4
3.0048	3328.0000	1.5975	3.7088e-4
3.0084	3324.0000	1.5974	3.7229e-4
3.0120	3320.0000	1.5974	3.7371e-4
3.0157	3316.0000	1.5973	3.7513e-4
3.0193	3312.0000	1.5972	3.7656e-4
3.0230	3308.0000	1.5972	3.7800e-4
3.0266	3304.0000	1.5971	3.7944e-4
3.0303	3300.0000	1.5971	3.8089e-4
3.0340	3296.0000	1.5970	3.8235e-4
3.0377	3292.0000	1.5969	3.8382e-4
3.0414	3288.0000	1.5969	3.8529e-4
3.0451	3284.0000	1.5968	3.8678e-4
3.0488	3280.0000	1.5968	3.8827e-4
3.0525	3276.0000	1.5967	3.8977e-4
3.0562	3272.0000	1.5966	3.9127e-4
3.0600	3268.0000	1.5966	3.9278e-4
3.0637	3264.0000	1.5965	3.9431e-4
3.0675	3260.0000	1.5965	3.9584e-4
3.0713	3256.0000	1.5964	3.9737e-4
3.0750	3252.0000	1.5963	3.9892e-4
3.0788	3248.0000	1.5963	4.0047e-4
3.0826	3244.0000	1.5962	4.0204e-4
3.0864	3240.0000	1.5961	4.0361e-4
3.0902	3236.0000	1.5961	4.0519e-4
3.0941	3232.0000	1.5960	4.0677e-4
3.0979	3228.0000	1.5959	4.0837e-4
3.1017	3224.0000	1.5959	4.0997e-4
3.1056	3220.0000	1.5958	4.1159e-4
3.1095	3216.0000	1.5957	4.1321e-4
3.1133	3212.0000	1.5957	4.1484e-4
3.1172	3208.0000	1.5956	4.1648e-4
3.1211	3204.0000	1.5956	4.1813e-4
3.1250	3200.0000	1.5955	4.1978e-4
3.1289	3196.0000	1.5954	4.2145e-4
3.1328	3192.0000	1.5954	4.2312e-4
3.1368	3188.0000	1.5953	4.2481e-4
3.1407	3184.0000	1.5952	4.2650e-4
3.1447	3180.0000	1.5951	4.2820e-4
3.1486	3176.0000	1.5951	4.2991e-4
3.1526	3172.0000	1.5950	4.3163e-4
3.1566	3168.0000	1.5949	4.3336e-4
3.1606	3164.0000	1.5949	4.3510e-4
3.1646	3160.0000	1.5948	4.3685e-4
3.1686	3156.0000	1.5947	4.3861e-4
3.1726	3152.0000	1.5947	4.4038e-4
3.1766	3148.0000	1.5946	4.4215e-4
3.1807	3144.0000	1.5945	4.4394e-4
3.1847	3140.0000	1.5945	4.4574e-4
3.1888	3136.0000	1.5944	4.4754e-4
3.1928	3132.0000	1.5943	4.4936e-4
3.1969	3128.0000	1.5942	4.5119e-4
3.2010	3124.0000	1.5942	4.5303e-4
3.2051	3120.0000	1.5941	4.5487e-4
3.2092	3116.0000	1.5940	4.5673e-4
3.2134	3112.0000	1.5940	4.5860e-4
3.2175	3108.0000	1.5939	4.6048e-4
3.2216	3104.0000	1.5938	4.6237e-4
3.2258	3100.0000	1.5937	4.6426e-4
3.2300	3096.0000	1.5937	4.6617e-4
3.2342	3092.0000	1.5936	4.6810e-4
3.2383	3088.0000	1.5935	4.7003e-4
3.2425	3084.0000	1.5934	4.7197e-4
3.2468	3080.0000	1.5934	4.7392e-4
3.2510	3076.0000	1.5933	4.7589e-4
3.2552	3072.0000	1.5932	4.7786e-4
3.2595	3068.0000	1.5931	4.7985e-4
3.2637	3064.0000	1.5930	4.8185e-4
3.2680	3060.0000	1.5930	4.8385e-4
3.2723	3056.0000	1.5929	4.8587e-4
3.2765	3052.0000	1.5928	4.8791e-4
3.2808	3048.0000	1.5927	4.8995e-4
3.2852	3044.0000	1.5927	4.9201e-4
3.2895	3040.0000	1.5926	4.9407e-4
3.2938	3036.0000	1.5925	4.9615e-4
3.2982	3032.0000	1.5924	4.9824e-4
3.3025	3028.0000	1.5923	5.0034e-4
3.3069	3024.0000	1.5923	5.0246e-4
3.3113	3020.0000	1.5922	5.0459e-4
3.3156	3016.0000	1.5921	5.0673e-4
3.3201	3012.0000	1.5920	5.0888e-4
3.3245	3008.0000	1.5919	5.1104e-4
3.3289	3004.0000	1.5919	5.1322e-4
3.3333	3000.0000	1.5918	5.1541e-4
3.3378	2996.0000	1.5917	5.1761e-4
3.3422	2992.0000	1.5916	5.1982e-4
3.3467	2988.0000	1.5915	5.2205e-4
3.3512	2984.0000	1.5914	5.2429e-4
3.3557	2980.0000	1.5914	5.2655e-4
3.3602	2976.0000	1.5913	5.2881e-4
3.3647	2972.0000	1.5912	5.3109e-4
3.3693	2968.0000	1.5911	5.3339e-4
3.3738	2964.0000	1.5910	5.3570e-4
3.3784	2960.0000	1.5909	5.3802e-4
3.3829	2956.0000	1.5908	5.4035e-4
3.3875	2952.0000	1.5908	5.4270e-4
3.3921	2948.0000	1.5907	5.4506e-4
3.3967	2944.0000	1.5906	5.4744e-4
3.4014	2940.0000	1.5905	5.4983e-4
3.4060	2936.0000	1.5904	5.5224e-4
3.4106	2932.0000	1.5903	5.5466e-4
3.4153	2928.0000	1.5902	5.5709e-4
3.4200	2924.0000	1.5901	5.5954e-4
3.4247	2920.0000	1.5900	5.6200e-4
3.4294	2916.0000	1.5899	5.6448e-4
3.4341	2912.0000	1.5899	5.6697e-4
3.4388	2908.0000	1.5898	5.6948e-4
3.4435	2904.0000	1.5897	5.7200e-4
3.4483	2900.0000	1.5896	5.7454e-4
3.4530	2896.0000	1.5895	5.7710e-4
3.4578	2892.0000	1.5894	5.7967e-4
3.4626	2888.0000	1.5893	5.8225e-4
3.4674	2884.0000	1.5892	5.8485e-4
3.4722	2880.0000	1.5891	5.8747e-4
3.4771	2876.0000	1.5890	5.9010e-4
3.4819	2872.0000	1.5889	5.9275e-4
3.4868	2868.0000	1.5888	5.9542e-4
3.4916	2864.0000	1.5887	5.9810e-4
3.4965	2860.0000	1.5886	6.0079e-4
3.5014	2856.0000	1.5885	6.0351e-4
3.5063	2852.0000	1.5884	6.0624e-4
3.5112	2848.0000	1.5883	6.0899e-4
3.5162	2844.0000	1.5882	6.1176e-4
3.5211	2840.0000	1.5881	6.1454e-4
3.5261	2836.0000	1.5880	6.1734e-4
3.5311	2832.0000	1.5879	6.2016e-4
3.5361	2828.0000	1.5878	6.2299e-4
3.5411	2824.0000	1.5877	6.2584e-4
3.5461	2820.0000	1.5876	6.2872e-4
3.5511	2816.0000	1.5875	6.3160e-4
3.5562	2812.0000	1.5874	6.3451e-4
3.5613	2808.0000	1.5873	6.3744e-4
3.5663	2804.0000	1.5872	6.4038e-4
3.5714	2800.0000	1.5871	6.4334e-4
3.5765	2796.0000	1.5870	6.4633e-4
3.5817	2792.0000	1.5869	6.4933e-4
3.5868	2788.0000	1.5868	6.5235e-4
3.5920	2784.0000	1.5867	6.5539e-4
3.5971	2780.0000	1.5866	6.5844e-4
3.6023	2776.0000	1.5865	6.6152e-4
3.6075	2772.0000	1.5864	6.6462e-4
3.6127	2768.0000	1.5863	6.6774e-4
3.6179	2764.0000	1.5862	6.7087e-4
3.6232	2760.0000	1.5860	6.7403e-4
3.6284	2756.0000	1.5859	6.7721e-4
3.6337	2752.0000	1.5858	6.8041e-4
3.6390	2748.0000	1.5857	6.8363e-4
3.6443	2744.0000	1.5856	6.8687e-4
3.6496	2740.0000	1.5855	6.9013e-4
3.6550	2736.0000	1.5854	6.9341e-4
3.6603	2732.0000	1.5853	6.9672e-4
3.6657	2728.0000	1.5851	7.0004e-4
3.6711	2724.0000	1.5850	7.0339e-4
3.6765	2720.0000	1.5849	7.0676e-4
3.6819	2716.0000	1.5848	7.1016e-4
3.6873	2712.0000	1.5847	7.1357e-4
3.6928	2708.0000	1.5846	7.1701e-4
3.6982	2704.0000	1.5844	7.2047e-4
3.7037	2700.0000	1.5843	7.2395e-4
3.7092	2696.0000	1.5842	7.2746e-4
3.7147	2692.0000	1.5841	7.3099e-4
3.7202	2688.0000	1.5840	7.3454e-4
3.7258	2684.0000	1.5838	7.3812e-4
3.7313	2680.0000	1.5837	7.4172e-4
3.7369	2676.0000	1.5836	7.4534e-4
3.7425	2672.0000	1.5835	7.4899e-4
3.7481	2668.0000	1.5834	7.5266e-4
3.7538	2664.0000	1.5832	7.5636e-4
3.7594	2660.0000	1.5831	7.6009e-4
3.7651	2656.0000	1.5830	7.6384e-4
3.7707	2652.0000	1.5829	7.6761e-4
3.7764	2648.0000	1.5827	7.7141e-4
3.7821	2644.0000	1.5826	7.7524e-4
3.7879	2640.0000	1.5825	7.7909e-4
3.7936	2636.0000	1.5823	7.8297e-4
3.7994	2632.0000	1.5822	7.8688e-4
3.8052	2628.0000	1.5821	7.9081e-4
3.8110	2624.0000	1.5819	7.9477e-4
3.8168	2620.0000	1.5818	7.9876e-4
3.8226	2616.0000	1.5817	8.0277e-4
3.8285	2612.0000	1.5815	8.0681e-4
3.8344	2608.0000	1.5814	8.1088e-4
3.8402	2604.0000	1.5813	8.1498e-4
3.8462	2600.0000	1.5811	8.1911e-4
3.8521	2596.0000	1.5810	8.2327e-4
3.8580	2592.0000	1.5809	8.2745e-4
3.8640	2588.0000	1.5807	8.3167e-4
3.8700	2584.0000	1.5806	8.3591e-4
3.8760	2580.0000	1.5805	8.4019e-4
3.8820	2576.0000	1.5803	8.4449e-4
3.8880	2572.0000	1.5802	8.4883e-4
3.8941	2568.0000	1.5800	8.5320e-4
3.9002	2564.0000	1.5799	8.5759e-4
3.9063	2560.0000	1.5797	8.6202e-4
3.9124	2556.0000	1.5796	8.6648e-4
3.9185	2552.0000	1.5795	8.7098e-4
3.9246	2548.0000	1.5793	8.7550e-4
3.9308	2544.0000	1.5792	8.8006e-4
3.9370	2540.0000	1.5790	8.8465e-4
3.9432	2536.0000	1.5789	8.8927e-4
3.9494	2532.0000	1.5787	8.9393e-4
3.9557	2528.0000	1.5786	8.9862e-4
3.9620	2524.0000	1.5784	9.0335e-4
3.9683	2520.0000	1.5783	9.0810e-4
3.9746	2516.0000	1.5781	9.1290e-4
3.9809	2512.0000	1.5780	9.1773e-4
3.9872	2508.0000	1.5778	9.2259e-4
3.9936	2504.0000	1.5777	9.2749e-4
4.0000	2500.0000	1.5775	9.3243e-4
4.0064	2496.0000	1.5773	9.3741e-4
4.0128	2492.0000	1.5772	9.4242e-4
4.0193	2488.0000	1.5770	9.4746e-4
4.0258	2484.0000	1.5769	9.5255e-4
4.0323	2480.0000	1.5767	9.5767e-4
4.0388	2476.0000	1.5765	9.6283e-4
4.0453	2472.0000	1.5764	9.6803e-4
4.0519	2468.0000	1.5762	9.7327e-4
4.0584	2464.0000	1.5761	9.7855e-4
4.0650	2460.0000	1.5759	9.8387e-4
4.0717	2456.0000	1.5757	9.8923e-4
4.0783	2452.0000	1.5756	9.9463e-4
4.0850	2448.0000	1.5754	1.0001e-3
4.0917	2444.0000	1.5752	1.0056e-3
4.0984	2440.0000	1.5750	1.0111e-3
4.1051	2436.0000	1.5749	1.0166e-3
4.1118	2432.0000	1.5747	1.0222e-3
4.1186	2428.0000	1.5745	1.0279e-3
4.1254	2424.0000	1.5744	1.0336e-3
4.1322	2420.0000	1.5742	1.0393e-3
4.1391	2416.0000	1.5740	1.0451e-3
4.1459	2412.0000	1.5738	1.0510e-3
4.1528	2408.0000	1.5736	1.0568e-3
4.1597	2404.0000	1.5735	1.0627e-3
4.1667	2400.0000	1.5733	1.0687e-3
4.1736	2396.0000	1.5731	1.0747e-3
4.1806	2392.0000	1.5729	1.0808e-3
4.1876	2388.0000	1.5727	1.0869e-3
4.1946	2384.0000	1.5725	1.0931e-3
4.2017	2380.0000	1.5724	1.0993e-3
4.2088	2376.0000	1.5722	1.1055e-3
4.2159	2372.0000	1.5720	1.1118e-3
4.2230	2368.0000	1.5718	1.1182e-3
4.2301	2364.0000	1.5716	1.1246e-3
4.2373	2360.0000	1.5714	1.1310e-3
4.2445	2356.0000	1.5712	1.1376e-3
4.2517	2352.0000	1.5710	1.1441e-3
4.2589	2348.0000	1.5708	1.1507e-3
4.2662	2344.0000	1.5706	1.1574e-3
4.2735	2340.0000	1.5704	1.1641e-3
4.2808	2336.0000	1.5702	1.1709e-3
4.2882	2332.0000	1.5700	1.1777e-3
4.2955	2328.0000	1.5698	1.1846e-3
4.3029	2324.0000	1.5696	1.1916e-3
4.3103	2320.0000	1.5694	1.1986e-3
4.3178	2316.0000	1.5692	1.2056e-3
4.3253	2312.0000	1.5690	1.2128e-3
4.3328	2308.0000	1.5688	1.2199e-3
4.3403	2304.0000	1.5686	1.2272e-3
4.3478	2300.0000	1.5684	1.2345e-3
4.3554	2296.0000	1.5681	1.2418e-3
4.3630	2292.0000	1.5679	1.2493e-3
4.3706	2288.0000	1.5677	1.2568e-3
4.3783	2284.0000	1.5675	1.2643e-3
4.3860	2280.0000	1.5673	1.2719e-3
4.3937	2276.0000	1.5670	1.2796e-3
4.4014	2272.0000	1.5668	1.2873e-3
4.4092	2268.0000	1.5666	1.2951e-3
4.4170	2264.0000	1.5664	1.3030e-3
4.4248	2260.0000	1.5661	1.3110e-3
4.4326	2256.0000	1.5659	1.3190e-3
4.4405	2252.0000	1.5657	1.3271e-3
4.4484	2248.0000	1.5655	1.3352e-3
4.4563	2244.0000	1.5652	1.3434e-3
4.4643	2240.0000	1.5650	1.3517e-3
4.4723	2236.0000	1.5647	1.3601e-3
4.4803	2232.0000	1.5645	1.3685e-3
4.4883	2228.0000	1.5643	1.3771e-3
4.4964	2224.0000	1.5640	1.3857e-3
4.5045	2220.0000	1.5638	1.3943e-3
4.5126	2216.0000	1.5635	1.4031e-3
4.5208	2212.0000	1.5633	1.4119e-3
4.5290	2208.0000	1.5630	1.4208e-3
4.5372	2204.0000	1.5628	1.4298e-3
4.5455	2200.0000	1.5625	1.4388e-3
4.5537	2196.0000	1.5623	1.4480e-3
4.5620	2192.0000	1.5620	1.4572e-3
4.5704	2188.0000	1.5618	1.4665e-3
4.5788	2184.0000	1.5615	1.4759e-3
4.5872	2180.0000	1.5612	1.4854e-3
4.5956	2176.0000	1.5610	1.4950e-3
4.6041	2172.0000	1.5607	1.5046e-3
4.6125	2168.0000	1.5604	1.5144e-3
4.6211	2164.0000	1.5602	1.5242e-3
4.6296	2160.0000	1.5599	1.5341e-3
4.6382	2156.0000	1.5596	1.5441e-3
4.6468	2152.0000	1.5594	1.5542e-3
4.6555	2148.0000	1.5591	1.5644e-3
4.6642	2144.0000	1.5588	1.5748e-3
4.6729	2140.0000	1.5585	1.5852e-3
4.6816	2136.0000	1.5582	1.5957e-3
4.6904	2132.0000	1.5579	1.6062e-3
4.6992	2128.0000	1.5577	1.6169e-3
4.7081	2124.0000	1.5574	1.6278e-3
4.7170	2120.0000	1.5571	1.6387e-3
4.7259	2116.0000	1.5568	1.6497e-3
4.7348	2112.0000	1.5565	1.6608e-3
4.7438	2108.0000	1.5562	1.6720e-3
4.7529	2104.0000	1.5559	1.6833e-3
4.7619	2100.0000	1.5556	1.6948e-3
4.7710	2096.0000	1.5553	1.7063e-3
4.7801	2092.0000	1.5550	1.7180e-3
4.7893	2088.0000	1.5547	1.7298e-3
4.7985	2084.0000	1.5543	1.7417e-3
4.8077	2080.0000	1.5540	1.7537e-3
4.8170	2076.0000	1.5537	1.7659e-3
4.8263	2072.0000	1.5534	1.7781e-3
4.8356	2068.0000	1.5531	1.7905e-3
4.8450	2064.0000	1.5527	1.8030e-3
4.8544	2060.0000	1.5524	1.8157e-3
4.8638	2056.0000	1.5521	1.8284e-3
4.8733	2052.0000	1.5517	1.8413e-3
4.8828	2048.0000	1.5514	1.8544e-3
4.8924	2044.0000	1.5511	1.8675e-3
4.9020	2040.0000	1.5507	1.8808e-3
4.9116	2036.0000	1.5504	1.8943e-3
4.9213	2032.0000	1.5500	1.9079e-3
4.9310	2028.0000	1.5497	1.9216e-3
4.9407	2024.0000	1.5493	1.9354e-3
4.9505	2020.0000	1.5490	1.9494e-3
4.9603	2016.0000	1.5486	1.9636e-3
4.9702	2012.0000	1.5482	1.9779e-3
4.9801	2008.0000	1.5479	1.9924e-3
4.9900	2004.0000	1.5475	2.0070e-3
5.0000	2000.0000	1.5471	2.0218e-3
5.0050	1998.0000	1.5469	2.0292e-3
5.0100	1996.0000	1.5467	2.0367e-3
5.0150	1994.0000	1.5466	2.0442e-3
5.0201	1992.0000	1.5464	2.0518e-3
5.0251	1990.0000	1.5462	2.0594e-3
5.0302	1988.0000	1.5460	2.0671e-3
5.0352	1986.0000	1.5458	2.0748e-3
5.0403	1984.0000	1.5456	2.0825e-3
5.0454	1982.0000	1.5454	2.0903e-3
5.0505	1980.0000	1.5452	2.0981e-3
5.0556	1978.0000	1.5450	2.1059e-3
5.0607	1976.0000	1.5448	2.1139e-3
5.0659	1974.0000	1.5446	2.1218e-3
5.0710	1972.0000	1.5444	2.1298e-3
5.0761	1970.0000	1.5442	2.1378e-3
5.0813	1968.0000	1.5440	2.1459e-3
5.0865	1966.0000	1.5438	2.1540e-3
5.0916	1964.0000	1.5436	2.1622e-3
5.0968	1962.0000	1.5434	2.1704e-3
5.1020	1960.0000	1.5432	2.1787e-3
5.1073	1958.0000	1.5430	2.1870e-3
5.1125	1956.0000	1.5428	2.1954e-3
5.1177	1954.0000	1.5426	2.2038e-3
5.1230	1952.0000	1.5424	2.2122e-3
5.1282	1950.0000	1.5422	2.2207e-3
5.1335	1948.0000	1.5420	2.2293e-3
5.1387	1946.0000	1.5418	2.2379e-3
5.1440	1944.0000	1.5415	2.2465e-3
5.1493	1942.0000	1.5413	2.2552e-3
5.1546	1940.0000	1.5411	2.2640e-3
5.1600	1938.0000	1.5409	2.2728e-3
5.1653	1936.0000	1.5407	2.2816e-3
5.1706	1934.0000	1.5405	2.2905e-3
5.1760	1932.0000	1.5402	2.2995e-3
5.1813	1930.0000	1.5400	2.3085e-3
5.1867	1928.0000	1.5398	2.3175e-3
5.1921	1926.0000	1.5396	2.3266e-3
5.1975	1924.0000	1.5394	2.3358e-3
5.2029	1922.0000	1.5391	2.3450e-3
5.2083	1920.0000	1.5389	2.3543e-3
5.2138	1918.0000	1.5387	2.3636e-3
5.2192	1916.0000	1.5385	2.3730e-3
5.2247	1914.0000	1.5382	2.3824e-3
5.2301	1912.0000	1.5380	2.3919e-3
5.2356	1910.0000	1.5378	2.4015e-3
5.2411	1908.0000	1.5376	2.4111e-3
5.2466	1906.0000	1.5373	2.4207e-3
5.2521	1904.0000	1.5371	2.4304e-3
5.2576	1902.0000	1.5369	2.4402e-3
5.2632	1900.0000	1.5366	2.4501e-3
5.2687	1898.0000	1.5364	2.4599e-3
5.2743	1896.0000	1.5362	2.4699e-3
5.2798	1894.0000	1.5359	2.4799e-3
5.2854	1892.0000	1.5357	2.4900e-3
5.2910	1890.0000	1.5354	2.5001e-3
5.2966	1888.0000	1.5352	2.5103e-3
5.3022	1886.0000	1.5350	2.5206e-3
5.3079	1884.0000	1.5347	2.5309e-3
5.3135	1882.0000	1.5345	2.5413e-3
5.3191	1880.0000	1.5342	2.5518e-3
5.3248	1878.0000	1.5340	2.5623e-3
5.3305	1876.0000	1.5337	2.5729e-3
5.3362	1874.0000	1.5335	2.5835e-3
5.3419	1872.0000	1.5332	2.5942e-3
5.3476	1870.0000	1.5330	2.6050e-3
5.3533	1868.0000	1.5327	2.6159e-3
5.3591	1866.0000	1.5325	2.6268e-3
5.3648	1864.0000	1.5322	2.6378e-3
5.3706	1862.0000	1.5320	2.6488e-3
5.3763	1860.0000	1.5317	2.6600e-3
5.3821	1858.0000	1.5314	2.6712e-3
5.3879	1856.0000	1.5312	2.6824e-3
5.3937	1854.0000	1.5309	2.6938e-3
5.3996	1852.0000	1.5306	2.7052e-3
5.4054	1850.0000	1.5304	2.7167e-3
5.4113	1848.0000	1.5301	2.7282e-3
5.4171	1846.0000	1.5298	2.7399e-3
5.4230	1844.0000	1.5296	2.7516e-3
5.4289	1842.0000	1.5293	2.7634e-3
5.4348	1840.0000	1.5290	2.7753e-3
5.4407	1838.0000	1.5288	2.7872e-3
5.4466	1836.0000	1.5285	2.7992e-3
5.4526	1834.0000	1.5282	2.8113e-3
5.4585	1832.0000	1.5279	2.8235e-3
5.4645	1830.0000	1.5277	2.8358e-3
5.4705	1828.0000	1.5274	2.8481e-3
5.4765	1826.0000	1.5271	2.8605e-3
5.4825	1824.0000	1.5268	2.8730e-3
5.4885	1822.0000	1.5265	2.8856e-3
5.4945	1820.0000	1.5262	2.8983e-3
5.5006	1818.0000	1.5259	2.9111e-3
5.5066	1816.0000	1.5257	2.9239e-3
5.5127	1814.0000	1.5254	2.9369e-3
5.5188	1812.0000	1.5251	2.9499e-3
5.5249	1810.0000	1.5248	2.9630e-3
5.5310	1808.0000	1.5245	2.9762e-3
5.5371	1806.0000	1.5242	2.9895e-3
5.5432	1804.0000	1.5239	3.0029e-3
5.5494	1802.0000	1.5236	3.0163e-3
5.5556	1800.0000	1.5233	3.0299e-3
5.5617	1798.0000	1.5230	3.0436e-3
5.5679	1796.0000	1.5227	3.0573e-3
5.5741	1794.0000	1.5224	3.0712e-3
5.5804	1792.0000	1.5221	3.0851e-3
5.5866	1790.0000	1.5217	3.0992e-3
5.5928	1788.0000	1.5214	3.1133e-3
5.5991	1786.0000	1.5211	3.1276e-3
5.6054	1784.0000	1.5208	3.1419e-3
5.6117	1782.0000	1.5205	3.1564e-3
5.6180	1780.0000	1.5202	3.1709e-3
5.6243	1778.0000	1.5198	3.1856e-3
5.6306	1776.0000	1.5195	3.2004e-3
5.6370	1774.0000	1.5192	3.2152e-3
5.6433	1772.0000	1.5189	3.2302e-3
5.6497	1770.0000	1.5185	3.2453e-3
5.6561	1768.0000	1.5182	3.2605e-3
5.6625	1766.0000	1.5179	3.2758e-3
5.6689	1764.0000	1.5175	3.2912e-3
5.6754	1762.0000	1.5172	3.3068e-3
5.6818	1760.0000	1.5169	3.3224e-3
5.6883	1758.0000	1.5165	3.3382e-3
5.6948	1756.0000	1.5162	3.3541e-3
5.7013	1754.0000	1.5158	3.3701e-3
5.7078	1752.0000	1.5155	3.3862e-3
5.7143	1750.0000	1.5151	3.4024e-3
5.7208	1748.0000	1.5148	3.4188e-3
5.7274	1746.0000	1.5144	3.4353e-3
5.7339	1744.0000	1.5141	3.4519e-3
5.7405	1742.0000	1.5137	3.4686e-3
5.7471	1740.0000	1.5134	3.4855e-3
5.7537	1738.0000	1.5130	3.5025e-3
5.7604	1736.0000	1.5126	3.5196e-3
5.7670	1734.0000	1.5123	3.5369e-3
5.7737	1732.0000	1.5119	3.5543e-3
5.7803	1730.0000	1.5115	3.5718e-3
5.7870	1728.0000	1.5112	3.5895e-3
5.7937	1726.0000	1.5108	3.6073e-3
5.8005	1724.0000	1.5104	3.6252e-3
5.8072	1722.0000	1.5100	3.6433e-3
5.8140	1720.0000	1.5096	3.6615e-3
5.8207	1718.0000	1.5093	3.6799e-3
5.8275	1716.0000	1.5089	3.6984e-3
5.8343	1714.0000	1.5085	3.7171e-3
5.8411	1712.0000	1.5081	3.7359e-3
5.8480	1710.0000	1.5077	3.7549e-3
5.8548	1708.0000	1.5073	3.7740e-3
5.8617	1706.0000	1.5069	3.7933e-3
5.8685	1704.0000	1.5065	3.8127e-3
5.8754	1702.0000	1.5061	3.8323e-3
5.8824	1700.0000	1.5057	3.8521e-3
5.8893	1698.0000	1.5053	3.8720e-3
5.8962	1696.0000	1.5049	3.8921e-3
5.9032	1694.0000	1.5045	3.9124e-3
5.9102	1692.0000	1.5040	3.9328e-3
5.9172	1690.0000	1.5036	3.9534e-3
5.9242	1688.0000	1.5032	3.9742e-3
5.9312	1686.0000	1.5028	3.9951e-3
5.9382	1684.0000	1.5023	4.0163e-3
5.9453	1682.0000	1.5019	4.0376e-3
5.9524	1680.0000	1.5015	4.0591e-3
5.9595	1678.0000	1.5010	4.0807e-3
5.9666	1676.0000	1.5006	4.1026e-3
5.9737	1674.0000	1.5002	4.1247e-3
5.9809	1672.0000	1.4997	4.1469e-3
5.9880	1670.0000	1.4993	4.1693e-3
5.9952	1668.0000	1.4988	4.1920e-3
6.0024	1666.0000	1.4984	4.2148e-3
6.0096	1664.0000	1.4979	4.2379e-3
6.0168	1662.0000	1.4974	4.2611e-3
6.0241	1660.0000	1.4970	4.2846e-3
6.0314	1658.0000	1.4965	4.3082e-3
6.0386	1656.0000	1.4960	4.3321e-3
6.0459	1654.0000	1.4956	4.3562e-3
6.0533	1652.0000	1.4951	4.3805e-3
6.0606	1650.0000	1.4946	4.4051e-3
6.0680	1648.0000	1.4941	4.4298e-3
6.0753	1646.0000	1.4936	4.4548e-3
6.0827	1644.0000	1.4931	4.4801e-3
6.0901	1642.0000	1.4927	4.5055e-3
6.0976	1640.0000	1.4922	4.5312e-3
6.1050	1638.0000	1.4917	4.5572e-3
6.1125	1636.0000	1.4911	4.5833e-3
6.1200	1634.0000	1.4906	4.6098e-3
6.1275	1632.0000	1.4901	4.6365e-3
6.1350	1630.0000	1.4896	4.6634e-3
6.1425	1628.0000	1.4891	4.6906e-3
6.1501	1626.0000	1.4886	4.7181e-3
6.1576	1624.0000	1.4880	4.7458e-3
6.1652	1622.0000	1.4875	4.7738e-3
6.1728	1620.0000	1.4870	4.8021e-3
6.1805	1618.0000	1.4864	4.8307e-3
6.1881	1616.0000	1.4859	4.8595e-3
6.1958	1614.0000	1.4853	4.8886e-3
6.2035	1612.0000	1.4848	4.9181e-3
6.2112	1610.0000	1.4842	4.9478e-3
6.2189	1608.0000	1.4837	4.9778e-3
6.2267	1606.0000	1.4831	5.0081e-3
6.2344	1604.0000	1.4825	5.0388e-3
6.2422	1602.0000	1.4820	5.0697e-3
6.2500	1600.0000	1.4814	5.1010e-3
6.2578	1598.0000	1.4808	5.1326e-3
6.2657	1596.0000	1.4802	5.1645e-3
6.2735	1594.0000	1.4796	5.1968e-3
6.2814	1592.0000	1.4790	5.2294e-3
6.2893	1590.0000	1.4784	5.2624e-3
6.2972	1588.0000	1.4778	5.2957e-3
6.3052	1586.0000	1.4772	5.3293e-3
6.3131	1584.0000	1.4766	5.3633e-3
6.3211	1582.0000	1.4760	5.3977e-3
6.3291	1580.0000	1.4753	5.4325e-3
6.3371	1578.0000	1.4747	5.4676e-3
6.3452	1576.0000	1.4741	5.5032e-3
6.3532	1574.0000	1.4734	5.5391e-3
6.3613	1572.0000	1.4728	5.5754e-3
6.3694	1570.0000	1.4721	5.6122e-3
6.3776	1568.0000	1.4715	5.6493e-3
6.3857	1566.0000	1.4708	5.6869e-3
6.3939	1564.0000	1.4701	5.7249e-3
6.4020	1562.0000	1.4694	5.7634e-3
6.4103	1560.0000	1.4688	5.8022e-3
6.4185	1558.0000	1.4681	5.8416e-3
6.4267	1556.0000	1.4674	5.8814e-3
6.4350	1554.0000	1.4667	5.9216e-3
6.4433	1552.0000	1.4660	5.9624e-3
6.4516	1550.0000	1.4653	6.0036e-3
6.4599	1548.0000	1.4645	6.0453e-3
6.4683	1546.0000	1.4638	6.0875e-3
6.4767	1544.0000	1.4631	6.1303e-3
6.4851	1542.0000	1.4623	6.1735e-3
6.4935	1540.0000	1.4616	6.2173e-3
6.5020	1538.0000	1.4609	6.2616e-3
6.5104	1536.0000	1.4601	6.3065e-3
6.5189	1534.0000	1.4593	6.3519e-3
6.5274	1532.0000	1.4586	6.3979e-3
6.5359	1530.0000	1.4578	6.4445e-3
6.5445	1528.0000	1.4570	6.4917e-3
6.5531	1526.0000	1.4562	6.5395e-3
6.5617	1524.0000	1.4554	6.5879e-3
6.5703	1522.0000	1.4546	6.6369e-3
6.5789	1520.0000	1.4538	6.6866e-3
6.5876	1518.0000	1.4529	6.7369e-3
6.5963	1516.0000	1.4521	6.7879e-3
6.6050	1514.0000	1.4513	6.8396e-3
6.6138	1512.0000	1.4504	6.8919e-3
6.6225	1510.0000	1.4496	6.9450e-3
6.6313	1508.0000	1.4487	6.9988e-3
6.6401	1506.0000	1.4478	7.0534e-3
6.6489	1504.0000	1.4469	7.1086e-3
6.6578	1502.0000	1.4460	7.1647e-3
6.6667	1500.0000	1.4451	7.2215e-3
6.6756	1498.0000	1.4442	7.2792e-3
6.6845	1496.0000	1.4433	7.3377e-3
6.6934	1494.0000	1.4424	7.3970e-3
6.7024	1492.0000	1.4414	7.4571e-3
6.7114	1490.0000	1.4405	7.5181e-3
6.7204	1488.0000	1.4395	7.5801e-3
6.7295	1486.0000	1.4385	7.6429e-3
6.7385	1484.0000	1.4376	7.7067e-3
6.7476	1482.0000	1.4366	7.7714e-3
6.7568	1480.0000	1.4356	7.8371e-3
6.7659	1478.0000	1.4346	7.9038e-3
6.7751	1476.0000	1.4335	7.9715e-3
6.7843	1474.0000	1.4325	8.0402e-3
6.7935	1472.0000	1.4315	8.1100e-3
6.8027	1470.0000	1.4304	8.1810e-3
6.8120	1468.0000	1.4293	8.2530e-3
6.8213	1466.0000	1.4282	8.3262e-3
6.8306	1464.0000	1.4271	8.4005e-3
6.8399	1462.0000	1.4260	8.4761e-3
6.8493	1460.0000	1.4249	8.5528e-3
6.8587	1458.0000	1.4238	8.6309e-3
6.8681	1456.0000	1.4226	8.7102e-3
6.8776	1454.0000	1.4215	8.7909e-3
6.8871	1452.0000	1.4203	8.8729e-3
6.8966	1450.0000	1.4191	8.9563e-3
6.9061	1448.0000	1.4179	9.0411e-3
6.9156	1446.0000	1.4167	9.1274e-3
6.9252	1444.0000	1.4155	9.2152e-3
6.9348	1442.0000	1.4142	9.3045e-3
6.9444	1440.0000	1.4129	9.3954e-3
6.9541	1438.0000	1.4117	9.4879e-3
6.9638	1436.0000	1.4104	9.5821e-3
6.9735	1434.0000	1.4091	9.6781e-3
6.9832	1432.0000	1.4077	9.7757e-3
6.9930	1430.0000	1.4064	9.8752e-3
7.0028	1428.0000	1.4050	0.0100
7.0126	1426.0000	1.4036	0.0101
7.0225	1424.0000	1.4022	0.0102
7.0323	1422.0000	1.4008	0.0103
7.0423	1420.0000	1.3994	0.0104
7.0522	1418.0000	1.3979	0.0105
7.0621	1416.0000	1.3964	0.0106
7.0721	1414.0000	1.3949	0.0107
7.0822	1412.0000	1.3934	0.0109
7.0922	1410.0000	1.3919	0.0110
7.1023	1408.0000	1.3903	0.0111
7.1124	1406.0000	1.3887	0.0112
7.1225	1404.0000	1.3871	0.0114
7.1327	1402.0000	1.3855	0.0115
7.1429	1400.0000	1.3838	0.0116
7.1531	1398.0000	1.3822	0.0118
7.1633	1396.0000	1.3805	0.0119
7.1736	1394.0000	1.3787	0.0120
7.1839	1392.0000	1.3770	0.0122
7.1942	1390.0000	1.3752	0.0123
7.2046	1388.0000	1.3734	0.0125
7.2150	1386.0000	1.3716	0.0126
7.2254	1384.0000	1.3697	0.0128
7.2359	1382.0000	1.3678	0.0130
7.2464	1380.0000	1.3659	0.0131
7.2569	1378.0000	1.3639	0.0133
7.2674	1376.0000	1.3619	0.0135
7.2780	1374.0000	1.3599	0.0137
7.2886	1372.0000	1.3578	0.0138
7.2993	1370.0000	1.3557	0.0140
7.3099	1368.0000	1.3536	0.0142
7.3206	1366.0000	1.3514	0.0144
7.3314	1364.0000	1.3492	0.0146
7.3421	1362.0000	1.3470	0.0148
7.3529	1360.0000	1.3447	0.0150
7.3638	1358.0000	1.3424	0.0153
7.3746	1356.0000	1.3400	0.0155
7.3855	1354.0000	1.3376	0.0157
7.3964	1352.0000	1.3352	0.0160
7.4074	1350.0000	1.3327	0.0162
7.4184	1348.0000	1.3301	0.0165
7.4294	1346.0000	1.3275	0.0167
7.4405	1344.0000	1.3249	0.0170
7.4516	1342.0000	1.3222	0.0173
7.4627	1340.0000	1.3195	0.0175
7.4738	1338.0000	1.3167	0.0178
7.4850	1336.0000	1.3138	0.0181
7.4963	1334.0000	1.3109	0.0184
7.5075	1332.0000	1.3079	0.0188
7.5188	1330.0000	1.3049	0.0191
7.5301	1328.0000	1.3017	0.0194
7.5415	1326.0000	1.2986	0.0198
7.5529	1324.0000	1.2953	0.0201
7.5643	1322.0000	1.2920	0.0205
7.5758	1320.0000	1.2886	0.0209
7.5873	1318.0000	1.2852	0.0213
7.5988	1316.0000	1.2816	0.0217
7.6104	1314.0000	1.2780	0.0222
7.6220	1312.0000	1.2743	0.0226
7.6336	1310.0000	1.2705	0.0231
7.6453	1308.0000	1.2666	0.0235
7.6570	1306.0000	1.2626	0.0240
7.6687	1304.0000	1.2585	0.0246
7.6805	1302.0000	1.2543	0.0251
7.6923	1300.0000	1.2500	0.0257
7.7042	1298.0000	1.2455	0.0262
7.7160	1296.0000	1.2410	0.0268
7.7280	1294.0000	1.2363	0.0275
7.7399	1292.0000	1.2316	0.0281
7.7519	1290.0000	1.2266	0.0288
7.7640	1288.0000	1.2216	0.0295
7.7760	1286.0000	1.2164	0.0303
7.7882	1284.0000	1.2110	0.0311
7.8003	1282.0000	1.2055	0.0319
7.8125	1280.0000	1.1998	0.0327
7.8247	1278.0000	1.1940	0.0336
7.8370	1276.0000	1.1879	0.0346
7.8493	1274.0000	1.1817	0.0356
7.8616	1272.0000	1.1752	0.0366
7.8740	1270.0000	1.1686	0.0377
7.8864	1268.0000	1.1617	0.0389
7.8989	1266.0000	1.1546	0.0401
7.9114	1264.0000	1.1472	0.0414
7.9239	1262.0000	1.1396	0.0427
7.9365	1260.0000	1.1317	0.0442
7.9491	1258.0000	1.1235	0.0457
7.9618	1256.0000	1.1150	0.0473
7.9745	1254.0000	1.1061	0.0490
7.9872	1252.0000	1.0969	0.0509
8.0000	1250.0000	1.0873	0.0528
8.0128	1248.0000	1.0773	0.0549
8.0257	1246.0000	1.0669	0.0571
8.0386	1244.0000	1.0561	0.0595
8.0515	1242.0000	1.0447	0.0621
8.0645	1240.0000	1.0328	0.0649
8.0775	1238.0000	1.0204	0.0679
8.0906	1236.0000	1.0073	0.0711
8.1037	1234.0000	0.9936	0.0747
8.1169	1232.0000	0.9792	0.0785
8.1301	1230.0000	0.9640	0.0827
8.1433	1228.0000	0.9480	0.0873
8.1566	1226.0000	0.9310	0.0923
8.1699	1224.0000	0.9131	0.0979
8.1833	1222.0000	0.8941	0.1040
8.1967	1220.0000	0.8739	0.1109
8.2102	1218.0000	0.8525	0.1186
8.2237	1216.0000	0.8296	0.1273
8.2372	1214.0000	0.8052	0.1372
8.2508	1212.0000	0.7790	0.1484
8.2645	1210.0000	0.7510	0.1614
8.2781	1208.0000	0.7210	0.1766
8.2919	1206.0000	0.6889	0.1943
8.3056	1204.0000	0.6547	0.2154
8.3195	1202.0000	0.6184	0.2406
8.3333	1200.0000	0.5805	0.2708
8.3472	1198.0000	0.5418	0.3073
8.3612	1196.0000	0.5036	0.3507
8.3752	1194.0000	0.4680	0.4013
8.3893	1192.0000	0.4366	0.4583
8.4034	1190.0000	0.4108	0.5202
8.4175	1188.0000	0.3909	0.5854
8.4317	1186.0000	0.3765	0.6526
8.4459	1184.0000	0.3669	0.7211
8.4602	1182.0000	0.3615	0.7905
8.4746	1180.0000	0.3599	0.8607
8.4890	1178.0000	0.3615	0.9320
8.5034	1176.0000	0.3662	1.0047
8.5179	1174.0000	0.3739	1.0790
8.5324	1172.0000	0.3847	1.1553
8.5470	1170.0000	0.3988	1.2342
8.5616	1168.0000	0.4164	1.3160
8.5763	1166.0000	0.4380	1.4013
8.5911	1164.0000	0.4642	1.4907
8.6059	1162.0000	0.4959	1.5848
8.6207	1160.0000	0.5342	1.6843
8.6356	1158.0000	0.5806	1.7899
8.6505	1156.0000	0.6372	1.9023
8.6655	1154.0000	0.7066	2.0221
8.6806	1152.0000	0.7926	2.1496
8.6957	1150.0000	0.9001	2.2845
8.7108	1148.0000	1.0358	2.4251
8.7260	1146.0000	1.2083	2.5672
8.7413	1144.0000	1.4280	2.7014
8.7566	1142.0000	1.7047	2.8107
8.7719	1140.0000	2.0420	2.8661
8.7873	1138.0000	2.4246	2.8296
8.8028	1136.0000	2.8076	2.6700
8.8183	1134.0000	3.1244	2.3920
8.8339	1132.0000	3.3253	2.0461
8.8496	1130.0000	3.4065	1.6980
8.8652	1128.0000	3.3988	1.3910
8.8810	1126.0000	3.3388	1.1396
8.8968	1124.0000	3.2539	0.9406
8.9127	1122.0000	3.1606	0.7848
8.9286	1120.0000	3.0676	0.6625
8.9445	1118.0000	2.9792	0.5658
8.9606	1116.0000	2.8969	0.4885
8.9767	1114.0000	2.8213	0.4260
8.9928	1112.0000	2.7522	0.3748
9.0090	1110.0000	2.6891	0.3325
9.0253	1108.0000	2.6315	0.2971
9.0416	1106.0000	2.5788	0.2672
9.0580	1104.0000	2.5305	0.2418
9.0744	1102.0000	2.4862	0.2200
9.0909	1100.0000	2.4453	0.2012
9.1075	1098.0000	2.4076	0.1848
9.1241	1096.0000	2.3727	0.1705
9.1408	1094.0000	2.3402	0.1579
9.1575	1092.0000	2.3100	0.1467
9.1743	1090.0000	2.2819	0.1368
9.1912	1088.0000	2.2556	0.1279
9.2081	1086.0000	2.2309	0.1200
9.2251	1084.0000	2.2077	0.1128
9.2421	1082.0000	2.1859	0.1064
9.2593	1080.0000	2.1653	0.1005
9.2764	1078.0000	2.1459	0.0952
9.2937	1076.0000	2.1276	0.0904
9.3110	1074.0000	2.1101	0.0859
9.3284	1072.0000	2.0936	0.0819
9.3458	1070.0000	2.0779	0.0782
9.3633	1068.0000	2.0630	0.0748
9.3809	1066.0000	2.0487	0.0716
9.3985	1064.0000	2.0351	0.0687
9.4162	1062.0000	2.0221	0.0660
9.4340	1060.0000	2.0096	0.0635
9.4518	1058.0000	1.9977	0.0612
9.4697	1056.0000	1.9863	0.0590
9.4877	1054.0000	1.9753	0.0570
9.5057	1052.0000	1.9648	0.0551
9.5238	1050.0000	1.9546	0.0534
9.5420	1048.0000	1.9449	0.0517
9.5602	1046.0000	1.9354	0.0502
9.5785	1044.0000	1.9264	0.0488
9.5969	1042.0000	1.9176	0.0474
9.6154	1040.0000	1.9091	0.0462
9.6339	1038.0000	1.9009	0.0450
9.6525	1036.0000	1.8930	0.0439
9.6712	1034.0000	1.8853	0.0428
9.6899	1032.0000	1.8779	0.0418
9.7087	1030.0000	1.8707	0.0409
9.7276	1028.0000	1.8637	0.0400
9.7466	1026.0000	1.8568	0.0392
9.7656	1024.0000	1.8502	0.0384
9.7847	1022.0000	1.8438	0.0377
9.8039	1020.0000	1.8375	0.0370
9.8232	1018.0000	1.8315	0.0363
9.8425	1016.0000	1.8255	0.0357
9.8619	1014.0000	1.8197	0.0351
9.8814	1012.0000	1.8141	0.0345
9.9010	1010.0000	1.8086	0.0340
9.9206	1008.0000	1.8032	0.0335
9.9404	1006.0000	1.7979	0.0331
9.9602	1004.0000	1.7928	0.0326
9.9800	1002.0000	1.7878	0.0322
10.0000	1000.0000	1.7829	0.0318
10.0200	998.0000	1.7780	0.0314
10.0402	996.0000	1.7733	0.0311
10.0604	994.0000	1.7687	0.0307
10.0806	992.0000	1.7642	0.0304
10.1010	990.0000	1.7597	0.0301
10.1215	988.0000	1.7554	0.0298
10.1420	986.0000	1.7511	0.0296
10.1626	984.0000	1.7469	0.0293
10.1833	982.0000	1.7428	0.0291
10.2041	980.0000	1.7387	0.0289
10.2249	978.0000	1.7347	0.0287
10.2459	976.0000	1.7308	0.0285
10.2669	974.0000	1.7269	0.0283
10.2881	972.0000	1.7231	0.0281
10.3093	970.0000	1.7194	0.0280
10.3306	968.0000	1.7157	0.0278
10.3520	966.0000	1.7120	0.0277
10.3734	964.0000	1.7084	0.0276
10.3950	962.0000	1.7049	0.0275
10.4167	960.0000	1.7014	0.0274
10.4384	958.0000	1.6979	0.0273
10.4603	956.0000	1.6945	0.0272
10.4822	954.0000	1.6912	0.0271
10.5042	952.0000	1.6878	0.0270
10.5263	950.0000	1.6845	0.0270
10.5485	948.0000	1.6813	0.0269
10.5708	946.0000	1.6781	0.0269
10.5932	944.0000	1.6749	0.0268
10.6157	942.0000	1.6717	0.0268
10.6383	940.0000	1.6686	0.0268
10.6610	938.0000	1.6655	0.0268
10.6838	936.0000	1.6624	0.0268
10.7066	934.0000	1.6594	0.0268
10.7296	932.0000	1.6564	0.0268
10.7527	930.0000	1.6534	0.0268
10.7759	928.0000	1.6504	0.0268
10.7991	926.0000	1.6475	0.0269
10.8225	924.0000	1.6445	0.0269
10.8460	922.0000	1.6416	0.0269
10.8696	920.0000	1.6387	0.0270
10.8932	918.0000	1.6359	0.0270
10.9170	916.0000	1.6330	0.0271
10.9409	914.0000	1.6302	0.0271
10.9649	912.0000	1.6274	0.0272
10.9890	910.0000	1.6246	0.0273
11.0132	908.0000	1.6218	0.0274
11.0375	906.0000	1.6190	0.0274
11.0619	904.0000	1.6162	0.0275
11.0865	902.0000	1.6134	0.0276
11.1111	900.0000	1.6107	0.0277
11.1359	898.0000	1.6079	0.0278
11.1607	896.0000	1.6052	0.0280
11.1857	894.0000	1.6025	0.0281
11.2108	892.0000	1.5997	0.0282
11.2360	890.0000	1.5970	0.0283
11.2613	888.0000	1.5943	0.0285
11.2867	886.0000	1.5916	0.0286
11.3122	884.0000	1.5889	0.0288
11.3379	882.0000	1.5862	0.0289
11.3636	880.0000	1.5834	0.0291
11.3895	878.0000	1.5807	0.0292
11.4155	876.0000	1.5780	0.0294
11.4416	874.0000	1.5753	0.0296
11.4679	872.0000	1.5726	0.0297
11.4943	870.0000	1.5699	0.0299
11.5207	868.0000	1.5672	0.0301
11.5473	866.0000	1.5644	0.0303
11.5741	864.0000	1.5617	0.0305
11.6009	862.0000	1.5590	0.0307
11.6279	860.0000	1.5562	0.0309
11.6550	858.0000	1.5535	0.0312
11.6822	856.0000	1.5507	0.0314
11.7096	854.0000	1.5480	0.0316
11.7371	852.0000	1.5452	0.0318
11.7647	850.0000	1.5424	0.0321
11.7925	848.0000	1.5396	0.0323
11.8203	846.0000	1.5368	0.0326
11.8483	844.0000	1.5339	0.0329
11.8765	842.0000	1.5311	0.0331
11.9048	840.0000	1.5282	0.0334
11.9332	838.0000	1.5253	0.0337
11.9617	836.0000	1.5224	0.0340
11.9904	834.0000	1.5195	0.0343
12.0192	832.0000	1.5166	0.0346
12.0482	830.0000	1.5136	0.0349
12.0773	828.0000	1.5106	0.0352
12.1065	826.0000	1.5076	0.0356
12.1359	824.0000	1.5046	0.0359
12.1655	822.0000	1.5015	0.0363
12.1951	820.0000	1.4984	0.0366
12.2249	818.0000	1.4953	0.0370
12.2549	816.0000	1.4921	0.0373
12.2850	814.0000	1.4890	0.0377
12.3153	812.0000	1.4857	0.0381
12.3457	810.0000	1.4825	0.0385
12.3762	808.0000	1.4792	0.0390
12.4069	806.0000	1.4759	0.0394
12.4378	804.0000	1.4725	0.0398
12.4688	802.0000	1.4691	0.0403
12.5000	800.0000	1.4656	0.0407
12.5313	798.0000	1.4621	0.0412
12.5628	796.0000	1.4585	0.0417
12.5945	794.0000	1.4549	0.0422
12.6263	792.0000	1.4512	0.0427
12.6582	790.0000	1.4475	0.0432
12.6904	788.0000	1.4437	0.0438
12.7226	786.0000	1.4399	0.0444
12.7551	784.0000	1.4360	0.0449
12.7877	782.0000	1.4320	0.0455
12.8205	780.0000	1.4279	0.0461
12.8535	778.0000	1.4237	0.0468
12.8866	776.0000	1.4195	0.0474
12.9199	774.0000	1.4152	0.0481
12.9534	772.0000	1.4108	0.0488
12.9870	770.0000	1.4063	0.0495
13.0208	768.0000	1.4017	0.0503
13.0548	766.0000	1.3969	0.0511
13.0890	764.0000	1.3921	0.0519
13.1234	762.0000	1.3871	0.0527
13.1579	760.0000	1.3820	0.0536
13.1926	758.0000	1.3768	0.0545
13.2275	756.0000	1.3714	0.0555
13.2626	754.0000	1.3659	0.0565
13.2979	752.0000	1.3602	0.0575
13.3333	750.0000	1.3543	0.0586
13.3690	748.0000	1.3482	0.0597
13.4048	746.0000	1.3418	0.0609
13.4409	744.0000	1.3353	0.0622
13.4771	742.0000	1.3285	0.0635
13.5135	740.0000	1.3215	0.0649
13.5501	738.0000	1.3142	0.0664
13.5870	736.0000	1.3065	0.0680
13.6240	734.0000	1.2985	0.0696
13.6612	732.0000	1.2902	0.0714
13.6986	730.0000	1.2814	0.0734
13.7363	728.0000	1.2722	0.0754
13.7741	726.0000	1.2625	0.0777
13.8122	724.0000	1.2522	0.0801
13.8504	722.0000	1.2413	0.0827
13.8889	720.0000	1.2298	0.0856
13.9276	718.0000	1.2175	0.0888
13.9665	716.0000	1.2043	0.0923
14.0056	714.0000	1.1902	0.0962
14.0449	712.0000	1.1749	0.1006
14.0845	710.0000	1.1584	0.1056
14.1243	708.0000	1.1405	0.1112
14.1643	706.0000	1.1208	0.1178
14.2045	704.0000	1.0992	0.1254
14.2450	702.0000	1.0753	0.1344
14.2857	700.0000	1.0487	0.1451
14.3266	698.0000	1.0188	0.1582
14.3678	696.0000	0.9850	0.1744
14.4092	694.0000	0.9466	0.1950
14.4509	692.0000	0.9026	0.2216
14.4928	690.0000	0.8523	0.2572
14.5349	688.0000	0.7954	0.3060
14.5773	686.0000	0.7334	0.3743
14.6199	684.0000	0.6722	0.4696
14.6628	682.0000	0.6233	0.5964
14.7059	680.0000	0.5992	0.7522
14.7493	678.0000	0.6082	0.9317
14.7929	676.0000	0.6577	1.1326
14.8368	674.0000	0.7623	1.3551
14.8810	672.0000	0.9524	1.5935
14.9254	670.0000	1.2804	1.8095
14.9701	668.0000	1.7796	1.8738
15.0150	666.0000	2.2844	1.6072
15.0602	664.0000	2.4953	1.1426
15.1057	662.0000	2.4553	0.7701
15.1515	660.0000	2.3382	0.5390
15.1976	658.0000	2.2193	0.4001
15.2439	656.0000	2.1166	0.3138
15.2905	654.0000	2.0310	0.2577
15.3374	652.0000	1.9597	0.2198
15.3846	650.0000	1.8999	0.1933
15.4321	648.0000	1.8490	0.1743
15.4799	646.0000	1.8052	0.1603
15.5280	644.0000	1.7670	0.1500
15.5763	642.0000	1.7334	0.1423
15.6250	640.0000	1.7034	0.1366
15.6740	638.0000	1.6764	0.1323
15.7233	636.0000	1.6520	0.1291
15.7729	634.0000	1.6297	0.1269
15.8228	632.0000	1.6091	0.1253
15.8730	630.0000	1.5901	0.1244
15.9236	628.0000	1.5723	0.1240
15.9744	626.0000	1.5557	0.1239
16.0256	624.0000	1.5400	0.1243
16.0772	622.0000	1.5252	0.1249
16.1290	620.0000	1.5111	0.1258
16.1812	618.0000	1.4976	0.1270
16.2338	616.0000	1.4847	0.1284
16.2866	614.0000	1.4722	0.1299
16.3399	612.0000	1.4602	0.1317
16.3934	610.0000	1.4486	0.1336
16.4474	608.0000	1.4373	0.1358
16.5017	606.0000	1.4263	0.1380
16.5563	604.0000	1.4155	0.1405
16.6113	602.0000	1.4050	0.1431
16.6667	600.0000	1.3947	0.1458
16.7224	598.0000	1.3846	0.1487
16.7785	596.0000	1.3746	0.1518
16.8350	594.0000	1.3647	0.1550
16.8919	592.0000	1.3550	0.1583
16.9492	590.0000	1.3453	0.1619
17.0068	588.0000	1.3358	0.1656
17.0648	586.0000	1.3263	0.1695
17.1233	584.0000	1.3168	0.1735
17.1821	582.0000	1.3074	0.1777
17.2414	580.0000	1.2981	0.1822
17.3010	578.0000	1.2887	0.1868
17.3611	576.0000	1.2794	0.1916
17.4216	574.0000	1.2701	0.1966
17.4825	572.0000	1.2608	0.2019
17.5439	570.0000	1.2515	0.2074
17.6056	568.0000	1.2422	0.2131
17.6678	566.0000	1.2329	0.2191
17.7305	564.0000	1.2235	0.2254
17.7936	562.0000	1.2142	0.2320
17.8571	560.0000	1.2049	0.2388
17.9211	558.0000	1.1955	0.2460
17.9856	556.0000	1.1861	0.2535
18.0505	554.0000	1.1768	0.2613
18.1159	552.0000	1.1674	0.2696
18.1818	550.0000	1.1581	0.2782
18.2482	548.0000	1.1488	0.2872
18.3150	546.0000	1.1395	0.2966
18.3824	544.0000	1.1302	0.3064
18.4502	542.0000	1.1211	0.3167
18.5185	540.0000	1.1120	0.3275
18.5874	538.0000	1.1030	0.3388
18.6567	536.0000	1.0941	0.3507
18.7266	534.0000	1.0854	0.3630
18.7970	532.0000	1.0769	0.3759
18.8679	530.0000	1.0686	0.3894
18.9394	528.0000	1.0605	0.4035
19.0114	526.0000	1.0528	0.4182
19.0840	524.0000	1.0454	0.4335
19.1571	522.0000	1.0385	0.4494
19.2308	520.0000	1.0319	0.4660
19.3050	518.0000	1.0259	0.4831
19.3798	516.0000	1.0204	0.5009
19.4553	514.0000	1.0156	0.5192
19.5313	512.0000	1.0114	0.5381
19.6078	510.0000	1.0080	0.5576
19.6850	508.0000	1.0054	0.5776
19.7628	506.0000	1.0036	0.5980
19.8413	504.0000	1.0027	0.6189
19.9203	502.0000	1.0029	0.6402
20.0000	500.0000	1.0040	0.6618
20.0803	498.0000	1.0062	0.6836
20.1613	496.0000	1.0096	0.7057
20.2429	494.0000	1.0141	0.7278
20.3252	492.0000	1.0198	0.7500
20.4082	490.0000	1.0267	0.7721
20.4918	488.0000	1.0348	0.7940
20.5761	486.0000	1.0443	0.8158
20.6612	484.0000	1.0550	0.8371
20.7469	482.0000	1.0670	0.8580
20.8333	480.0000	1.0803	0.8783
20.9205	478.0000	1.0948	0.8980
21.0084	476.0000	1.1106	0.9168
21.0970	474.0000	1.1276	0.9347
21.1864	472.0000	1.1457	0.9515
21.2766	470.0000	1.1649	0.9670
21.3675	468.0000	1.1851	0.9813
21.4592	466.0000	1.2061	0.9941
21.5517	464.0000	1.2279	1.0053
21.6450	462.0000	1.2502	1.0149
21.7391	460.0000	1.2730	1.0227
21.8341	458.0000	1.2960	1.0286
21.9298	456.0000	1.3190	1.0327
22.0264	454.0000	1.3418	1.0349
22.1239	452.0000	1.3643	1.0352
22.2222	450.0000	1.3860	1.0337
22.3214	448.0000	1.4070	1.0304
22.4215	446.0000	1.4268	1.0254
22.5225	444.0000	1.4454	1.0190
22.6244	442.0000	1.4626	1.0112
22.7273	440.0000	1.4782	1.0023
22.8311	438.0000	1.4922	0.9925
22.9358	436.0000	1.5044	0.9820
23.0415	434.0000	1.5148	0.9711
23.1481	432.0000	1.5235	0.9599
23.2558	430.0000	1.5304	0.9486
23.3645	428.0000	1.5355	0.9376
23.4742	426.0000	1.5391	0.9269
23.5849	424.0000	1.5411	0.9167
23.6967	422.0000	1.5417	0.9073
23.8095	420.0000	1.5410	0.8986
23.9234	418.0000	1.5392	0.8909
24.0385	416.0000	1.5363	0.8841
24.1546	414.0000	1.5326	0.8785
24.2718	412.0000	1.5281	0.8740
24.3902	410.0000	1.5230	0.8706
24.5098	408.0000	1.5174	0.8684
24.6305	406.0000	1.5114	0.8675
24.7525	404.0000	1.5053	0.8677
24.8756	402.0000	1.4991	0.8691
25.0000	400.0000	1.4928	0.8716
25.1256	398.0000	1.4867	0.8753
25.2525	396.0000	1.4809	0.8800
25.3807	394.0000	1.4753	0.8858
25.5102	392.0000	1.4702	0.8926
25.6410	390.0000	1.4656	0.9003
25.7732	388.0000	1.4615	0.9088
25.9067	386.0000	1.4581	0.9181
26.0417	384.0000	1.4554	0.9282
26.1780	382.0000	1.4535	0.9388
26.3158	380.0000	1.4524	0.9500
26.4550	378.0000	1.4521	0.9617
26.5957	376.0000	1.4528	0.9737
26.7380	374.0000	1.4543	0.9861
26.8817	372.0000	1.4568	0.9985
27.0270	370.0000	1.4602	1.0111
27.1739	368.0000	1.4645	1.0237
27.3224	366.0000	1.4698	1.0361
27.4725	364.0000	1.4759	1.0484
27.6243	362.0000	1.4829	1.0604
27.7778	360.0000	1.4908	1.0719
27.9330	358.0000	1.4994	1.0831
28.0899	356.0000	1.5088	1.0936
28.2486	354.0000	1.5188	1.1036
28.4091	352.0000	1.5295	1.1128
28.5714	350.0000	1.5406	1.1213
28.7356	348.0000	1.5521	1.1290
28.9017	346.0000	1.5640	1.1358
29.0698	344.0000	1.5761	1.1417
29.2398	342.0000	1.5883	1.1467
29.4118	340.0000	1.6005	1.1508
29.5858	338.0000	1.6126	1.1539
29.7619	336.0000	1.6245	1.1561
29.9401	334.0000	1.6361	1.1574
30.1205	332.0000	1.6472	1.1579
30.3030	330.0000	1.6578	1.1575
30.4878	328.0000	1.6677	1.1564
30.6748	326.0000	1.6769	1.1546
30.8642	324.0000	1.6852	1.1522
31.0559	322.0000	1.6927	1.1493
31.2500	320.0000	1.6991	1.1460
31.4465	318.0000	1.7045	1.1424
31.6456	316.0000	1.7088	1.1386
31.8471	314.0000	1.7120	1.1348
32.0513	312.0000	1.7141	1.1310
32.2581	310.0000	1.7150	1.1274
32.4675	308.0000	1.7147	1.1241
32.6797	306.0000	1.7133	1.1213
32.8947	304.0000	1.7107	1.1190
33.1126	302.0000	1.7071	1.1174
33.3333	300.0000	1.7023	1.1165
33.5570	298.0000	1.6966	1.1166
33.7838	296.0000	1.6899	1.1177
34.0136	294.0000	1.6824	1.1200
34.2466	292.0000	1.6740	1.1234
34.4828	290.0000	1.6649	1.1283
34.7222	288.0000	1.6551	1.1345
34.9650	286.0000	1.6448	1.1423
35.2113	284.0000	1.6341	1.1516
35.4610	282.0000	1.6231	1.1627
35.7143	280.0000	1.6118	1.1755
35.9712	278.0000	1.6005	1.1901
36.2319	276.0000	1.5892	1.2067
36.4964	274.0000	1.5781	1.2251
36.7647	272.0000	1.5673	1.2456
37.0370	270.0000	1.5570	1.2681
37.3134	268.0000	1.5473	1.2926
37.5940	266.0000	1.5384	1.3191
37.8788	264.0000	1.5304	1.3478
38.1679	262.0000	1.5235	1.3785
38.4615	260.0000	1.5178	1.4112
38.7597	258.0000	1.5135	1.4460
39.0625	256.0000	1.5106	1.4828
39.3701	254.0000	1.5094	1.5217
39.6825	252.0000	1.5099	1.5626
40.0000	250.0000	1.5123	1.6055
40.3226	248.0000	1.5166	1.6506
40.6504	246.0000	1.5231	1.6978
40.9836	244.0000	1.5317	1.7472
41.3223	242.0000	1.5428	1.7991
41.6667	240.0000	1.5563	1.8536
42.0168	238.0000	1.5727	1.9111
42.3729	236.0000	1.5921	1.9720
42.7350	234.0000	1.6151	2.0367
43.1034	232.0000	1.6423	2.1061
43.4783	230.0000	1.6748	2.1808
43.8596	228.0000	1.7139	2.2620
44.2478	226.0000	1.7619	2.3506
44.6429	224.0000	1.8219	2.4477
45.0450	222.0000	1.8985	2.5537
45.4545	220.0000	1.9982	2.6682
45.8716	218.0000	2.1301	2.7879
46.2963	216.0000	2.3050	2.9043
46.7290	214.0000	2.5334	3.0003
47.1698	212.0000	2.8181	3.0466
47.6190	210.0000	3.1408	3.0060
48.0769	208.0000	3.4532	2.8543
48.5437	206.0000	3.6942	2.6076
49.0196	204.0000	3.8302	2.3200
49.5050	202.0000	3.8711	2.0468
50.0000	200.0000	3.8497	1.8162
50.5051	198.0000	3.7963	1.6328
51.0204	196.0000	3.7308	1.4894
51.5464	194.0000	3.6635	1.3768
52.0833	192.0000	3.5992	1.2867
52.6316	190.0000	3.5396	1.2128
53.1915	188.0000	3.4847	1.1506
53.7634	186.0000	3.4341	1.0970
54.3478	184.0000	3.3869	1.0498
54.9451	182.0000	3.3424	1.0076
55.5556	180.0000	3.2999	0.9694
56.1798	178.0000	3.2587	0.9345
56.8182	176.0000	3.2183	0.9024
57.4713	174.0000	3.1782	0.8729
58.1395	172.0000	3.1379	0.8457
58.8235	170.0000	3.0971	0.8208
59.5238	168.0000	3.0555	0.7981
60.2410	166.0000	3.0126	0.7777
60.9756	164.0000	2.9681	0.7596
61.7284	162.0000	2.9215	0.7439
62.5000	160.0000	2.8726	0.7309
63.2911	158.0000	2.8208	0.7207
64.1026	156.0000	2.7655	0.7138
64.9351	154.0000	2.7060	0.7107
65.7895	152.0000	2.6415	0.7120
66.6667	150.0000	2.5711	0.7188
67.5676	148.0000	2.4935	0.7324
68.4932	146.0000	2.4072	0.7547
69.4444	144.0000	2.3107	0.7889
70.4225	142.0000	2.2020	0.8392
71.4286	140.0000	2.0797	0.9125
72.4638	138.0000	1.9437	1.0188
73.5294	136.0000	1.7985	1.1722
74.6269	134.0000	1.6570	1.3890
75.7576	132.0000	1.5433	1.6807
76.9231	130.0000	1.4856	2.0474
78.1250	128.0000	1.5093	2.4839
79.3651	126.0000	1.6441	2.9894
80.6452	124.0000	1.9456	3.5648
81.9672	122.0000	2.5268	4.1787
83.3333	120.0000	3.5639	4.6455
84.7458	118.0000	4.9994	4.4286
86.2069	116.0000	5.9627	3.2991
87.7193	114.0000	6.0286	2.1521
89.2857	112.0000	5.7329	1.4316
90.9091	110.0000	5.4046	1.0160
92.5926	108.0000	5.1226	0.7671
94.3396	106.0000	4.8924	0.6086
96.1538	104.0000	4.7048	0.5019
98.0392	102.0000	4.5505	0.4264
100.0000	100.0000	4.4218	0.3708
102.0408	98.0000	4.3130	0.3284
104.1667	96.0000	4.2198	0.2950
106.3830	94.0000	4.1391	0.2682
108.6957	92.0000	4.0685	0.2460
111.1111	90.0000	4.0063	0.2274
113.6364	88.0000	3.9509	0.2114
116.2791	86.0000	3.9013	0.1976
119.0476	84.0000	3.8567	0.1854
121.9512	82.0000	3.8163	0.1746
125.0000	80.0000	3.7795	0.1648
128.2051	78.0000	3.7458	0.1560
131.5789	76.0000	3.7150	0.1479
135.1351	74.0000	3.6866	0.1404
138.8889	72.0000	3.6604	0.1335
142.8571	70.0000	3.6361	0.1270
147.0588	68.0000	3.6136	0.1210
151.5152	66.0000	3.5927	0.1152
156.2500	64.0000	3.5732	0.1098
161.2903	62.0000	3.5551	0.1047
166.6667	60.0000	3.5381	0.0998
172.4138	58.0000	3.5222	0.0951
178.5714	56.0000	3.5074	0.0906
185.1852	54.0000	3.4935	0.0863
192.3077	52.0000	3.4805	0.0821
200.0000	50.0000	3.4683	0.0781
208.3333	48.0000	3.4569	0.0742
217.3913	46.0000	3.4462	0.0704
227.2727	44.0000	3.4362	0.0667
238.0952	42.0000	3.4268	0.0632
250.0000	40.0000	3.4180	0.0597
263.1579	38.0000	3.4098	0.0563
277.7778	36.0000	3.4022	0.0529
294.1176	34.0000	3.3951	0.0496
312.5000	32.0000	3.3885	0.0464
333.3333	30.0000	3.3823	0.0433