Optical constants of Gypsum, calculated from oscillator parameters
listed in Long et al. (1993) Infrared Physics, Vol. 34, No. 2,
191-201.  gypsum E||Y	
Wave.         Freq.
(microns)    (cm-1)       n            k
2.5000	4000.0000	1.3988	3.3887e-3
2.5025	3996.0000	1.3983	3.4470e-3
2.5050	3992.0000	1.3978	3.5068e-3
2.5075	3988.0000	1.3972	3.5682e-3
2.5100	3984.0000	1.3967	3.6313e-3
2.5126	3980.0000	1.3961	3.6961e-3
2.5151	3976.0000	1.3955	3.7627e-3
2.5176	3972.0000	1.3950	3.8311e-3
2.5202	3968.0000	1.3944	3.9014e-3
2.5227	3964.0000	1.3938	3.9737e-3
2.5253	3960.0000	1.3932	4.0481e-3
2.5278	3956.0000	1.3926	4.1246e-3
2.5304	3952.0000	1.3919	4.2033e-3
2.5329	3948.0000	1.3913	4.2843e-3
2.5355	3944.0000	1.3906	4.3677e-3
2.5381	3940.0000	1.3900	4.4536e-3
2.5407	3936.0000	1.3893	4.5421e-3
2.5432	3932.0000	1.3886	4.6333e-3
2.5458	3928.0000	1.3879	4.7273e-3
2.5484	3924.0000	1.3872	4.8242e-3
2.5510	3920.0000	1.3864	4.9242e-3
2.5536	3916.0000	1.3857	5.0274e-3
2.5562	3912.0000	1.3849	5.1338e-3
2.5589	3908.0000	1.3841	5.2438e-3
2.5615	3904.0000	1.3833	5.3573e-3
2.5641	3900.0000	1.3825	5.4746e-3
2.5667	3896.0000	1.3817	5.5958e-3
2.5694	3892.0000	1.3808	5.7212e-3
2.5720	3888.0000	1.3800	5.8509e-3
2.5747	3884.0000	1.3791	5.9850e-3
2.5773	3880.0000	1.3782	6.1239e-3
2.5800	3876.0000	1.3772	6.2677e-3
2.5826	3872.0000	1.3763	6.4167e-3
2.5853	3868.0000	1.3753	6.5711e-3
2.5880	3864.0000	1.3743	6.7313e-3
2.5907	3860.0000	1.3733	6.8973e-3
2.5934	3856.0000	1.3723	7.0697e-3
2.5961	3852.0000	1.3712	7.2487e-3
2.5988	3848.0000	1.3701	7.4346e-3
2.6015	3844.0000	1.3690	7.6278e-3
2.6042	3840.0000	1.3678	7.8287e-3
2.6069	3836.0000	1.3666	8.0377e-3
2.6096	3832.0000	1.3654	8.2553e-3
2.6123	3828.0000	1.3642	8.4819e-3
2.6151	3824.0000	1.3629	8.7180e-3
2.6178	3820.0000	1.3616	8.9642e-3
2.6205	3816.0000	1.3602	9.2210e-3
2.6233	3812.0000	1.3589	9.4891e-3
2.6261	3808.0000	1.3574	9.7691e-3
2.6288	3804.0000	1.3560	0.0101
2.6316	3800.0000	1.3545	0.0104
2.6344	3796.0000	1.3529	0.0107
2.6371	3792.0000	1.3513	0.0110
2.6399	3788.0000	1.3497	0.0114
2.6427	3784.0000	1.3480	0.0117
2.6455	3780.0000	1.3462	0.0121
2.6483	3776.0000	1.3444	0.0125
2.6511	3772.0000	1.3425	0.0130
2.6539	3768.0000	1.3406	0.0134
2.6567	3764.0000	1.3386	0.0139
2.6596	3760.0000	1.3365	0.0144
2.6624	3756.0000	1.3344	0.0149
2.6652	3752.0000	1.3322	0.0155
2.6681	3748.0000	1.3299	0.0161
2.6709	3744.0000	1.3275	0.0167
2.6738	3740.0000	1.3250	0.0173
2.6767	3736.0000	1.3225	0.0180
2.6795	3732.0000	1.3198	0.0188
2.6824	3728.0000	1.3170	0.0196
2.6853	3724.0000	1.3142	0.0204
2.6882	3720.0000	1.3112	0.0213
2.6911	3716.0000	1.3081	0.0223
2.6940	3712.0000	1.3048	0.0233
2.6969	3708.0000	1.3014	0.0244
2.6998	3704.0000	1.2978	0.0256
2.7027	3700.0000	1.2941	0.0268
2.7056	3696.0000	1.2902	0.0282
2.7086	3692.0000	1.2862	0.0296
2.7115	3688.0000	1.2819	0.0312
2.7144	3684.0000	1.2774	0.0329
2.7174	3680.0000	1.2727	0.0347
2.7203	3676.0000	1.2678	0.0367
2.7233	3672.0000	1.2625	0.0389
2.7263	3668.0000	1.2570	0.0413
2.7293	3664.0000	1.2512	0.0439
2.7322	3660.0000	1.2451	0.0468
2.7352	3656.0000	1.2386	0.0499
2.7382	3652.0000	1.2317	0.0534
2.7412	3648.0000	1.2244	0.0572
2.7442	3644.0000	1.2167	0.0614
2.7473	3640.0000	1.2084	0.0662
2.7503	3636.0000	1.1996	0.0715
2.7533	3632.0000	1.1903	0.0774
2.7563	3628.0000	1.1803	0.0841
2.7594	3624.0000	1.1696	0.0917
2.7624	3620.0000	1.1583	0.1003
2.7655	3616.0000	1.1461	0.1101
2.7685	3612.0000	1.1332	0.1214
2.7716	3608.0000	1.1195	0.1344
2.7747	3604.0000	1.1049	0.1496
2.7778	3600.0000	1.0896	0.1672
2.7809	3596.0000	1.0737	0.1879
2.7840	3592.0000	1.0573	0.2121
2.7871	3588.0000	1.0410	0.2408
2.7902	3584.0000	1.0254	0.2745
2.7933	3580.0000	1.0115	0.3142
2.7964	3576.0000	1.0008	0.3606
2.7996	3572.0000	0.9951	0.4140
2.8027	3568.0000	0.9970	0.4743
2.8058	3564.0000	1.0090	0.5406
2.8090	3560.0000	1.0339	0.6109
2.8121	3556.0000	1.0739	0.6825
2.8153	3552.0000	1.1309	0.7515
2.8185	3548.0000	1.2056	0.8130
2.8217	3544.0000	1.2973	0.8611
2.8249	3540.0000	1.4029	0.8895
2.8281	3536.0000	1.5161	0.8928
2.8313	3532.0000	1.6279	0.8683
2.8345	3528.0000	1.7281	0.8179
2.8377	3524.0000	1.8089	0.7483
2.8409	3520.0000	1.8665	0.6686
2.8441	3516.0000	1.9019	0.5874
2.8474	3512.0000	1.9189	0.5108
2.8506	3508.0000	1.9223	0.4422
2.8539	3504.0000	1.9165	0.3825
2.8571	3500.0000	1.9048	0.3317
2.8604	3496.0000	1.8898	0.2887
2.8637	3492.0000	1.8732	0.2525
2.8670	3488.0000	1.8559	0.2220
2.8703	3484.0000	1.8388	0.1963
2.8736	3480.0000	1.8221	0.1745
2.8769	3476.0000	1.8062	0.1559
2.8802	3472.0000	1.7910	0.1400
2.8835	3468.0000	1.7768	0.1263
2.8868	3464.0000	1.7634	0.1144
2.8902	3460.0000	1.7509	0.1041
2.8935	3456.0000	1.7391	0.0951
2.8969	3452.0000	1.7281	0.0871
2.9002	3448.0000	1.7178	0.0801
2.9036	3444.0000	1.7082	0.0739
2.9070	3440.0000	1.6991	0.0684
2.9104	3436.0000	1.6906	0.0634
2.9138	3432.0000	1.6827	0.0590
2.9172	3428.0000	1.6751	0.0550
2.9206	3424.0000	1.6681	0.0514
2.9240	3420.0000	1.6614	0.0482
2.9274	3416.0000	1.6551	0.0452
2.9308	3412.0000	1.6491	0.0425
2.9343	3408.0000	1.6435	0.0400
2.9377	3404.0000	1.6381	0.0378
2.9412	3400.0000	1.6330	0.0357
2.9446	3396.0000	1.6282	0.0338
2.9481	3392.0000	1.6236	0.0320
2.9516	3388.0000	1.6192	0.0304
2.9551	3384.0000	1.6151	0.0289
2.9586	3380.0000	1.6111	0.0275
2.9621	3376.0000	1.6073	0.0262
2.9656	3372.0000	1.6036	0.0250
2.9691	3368.0000	1.6002	0.0238
2.9727	3364.0000	1.5968	0.0228
2.9762	3360.0000	1.5936	0.0218
2.9797	3356.0000	1.5906	0.0209
2.9833	3352.0000	1.5876	0.0200
2.9869	3348.0000	1.5848	0.0192
2.9904	3344.0000	1.5821	0.0185
2.9940	3340.0000	1.5794	0.0177
2.9976	3336.0000	1.5769	0.0171
3.0012	3332.0000	1.5745	0.0164
3.0048	3328.0000	1.5721	0.0158
3.0084	3324.0000	1.5699	0.0153
3.0120	3320.0000	1.5677	0.0147
3.0157	3316.0000	1.5656	0.0142
3.0193	3312.0000	1.5635	0.0137
3.0230	3308.0000	1.5615	0.0133
3.0266	3304.0000	1.5596	0.0128
3.0303	3300.0000	1.5577	0.0124
3.0340	3296.0000	1.5559	0.0120
3.0377	3292.0000	1.5542	0.0116
3.0414	3288.0000	1.5525	0.0113
3.0451	3284.0000	1.5509	0.0109
3.0488	3280.0000	1.5493	0.0106
3.0525	3276.0000	1.5477	0.0103
3.0562	3272.0000	1.5462	0.0100
3.0600	3268.0000	1.5447	9.7095e-3
3.0637	3264.0000	1.5433	9.4368e-3
3.0675	3260.0000	1.5419	9.1757e-3
3.0713	3256.0000	1.5406	8.9256e-3
3.0750	3252.0000	1.5393	8.6857e-3
3.0788	3248.0000	1.5380	8.4557e-3
3.0826	3244.0000	1.5367	8.2349e-3
3.0864	3240.0000	1.5355	8.0229e-3
3.0902	3236.0000	1.5343	7.8192e-3
3.0941	3232.0000	1.5332	7.6233e-3
3.0979	3228.0000	1.5320	7.4350e-3
3.1017	3224.0000	1.5309	7.2538e-3
3.1056	3220.0000	1.5298	7.0793e-3
3.1095	3216.0000	1.5288	6.9113e-3
3.1133	3212.0000	1.5277	6.7494e-3
3.1172	3208.0000	1.5267	6.5933e-3
3.1211	3204.0000	1.5257	6.4428e-3
3.1250	3200.0000	1.5248	6.2976e-3
3.1289	3196.0000	1.5238	6.1574e-3
3.1328	3192.0000	1.5229	6.0220e-3
3.1368	3188.0000	1.5220	5.8913e-3
3.1407	3184.0000	1.5211	5.7650e-3
3.1447	3180.0000	1.5202	5.6429e-3
3.1486	3176.0000	1.5194	5.5248e-3
3.1526	3172.0000	1.5186	5.4105e-3
3.1566	3168.0000	1.5177	5.3000e-3
3.1606	3164.0000	1.5169	5.1929e-3
3.1646	3160.0000	1.5161	5.0893e-3
3.1686	3156.0000	1.5154	4.9889e-3
3.1726	3152.0000	1.5146	4.8916e-3
3.1766	3148.0000	1.5139	4.7974e-3
3.1807	3144.0000	1.5131	4.7059e-3
3.1847	3140.0000	1.5124	4.6173e-3
3.1888	3136.0000	1.5117	4.5313e-3
3.1928	3132.0000	1.5110	4.4478e-3
3.1969	3128.0000	1.5103	4.3668e-3
3.2010	3124.0000	1.5097	4.2881e-3
3.2051	3120.0000	1.5090	4.2117e-3
3.2092	3116.0000	1.5083	4.1375e-3
3.2134	3112.0000	1.5077	4.0654e-3
3.2175	3108.0000	1.5071	3.9953e-3
3.2216	3104.0000	1.5065	3.9271e-3
3.2258	3100.0000	1.5058	3.8608e-3
3.2300	3096.0000	1.5052	3.7964e-3
3.2342	3092.0000	1.5047	3.7337e-3
3.2383	3088.0000	1.5041	3.6726e-3
3.2425	3084.0000	1.5035	3.6132e-3
3.2468	3080.0000	1.5029	3.5554e-3
3.2510	3076.0000	1.5024	3.4991e-3
3.2552	3072.0000	1.5018	3.4443e-3
3.2595	3068.0000	1.5013	3.3909e-3
3.2637	3064.0000	1.5008	3.3388e-3
3.2680	3060.0000	1.5002	3.2881e-3
3.2723	3056.0000	1.4997	3.2386e-3
3.2765	3052.0000	1.4992	3.1904e-3
3.2808	3048.0000	1.4987	3.1434e-3
3.2852	3044.0000	1.4982	3.0976e-3
3.2895	3040.0000	1.4977	3.0529e-3
3.2938	3036.0000	1.4972	3.0093e-3
3.2982	3032.0000	1.4968	2.9667e-3
3.3025	3028.0000	1.4963	2.9252e-3
3.3069	3024.0000	1.4958	2.8846e-3
3.3113	3020.0000	1.4954	2.8451e-3
3.3156	3016.0000	1.4949	2.8064e-3
3.3201	3012.0000	1.4944	2.7687e-3
3.3245	3008.0000	1.4940	2.7318e-3
3.3289	3004.0000	1.4936	2.6958e-3
3.3333	3000.0000	1.4931	2.6606e-3
3.3378	2996.0000	1.4927	2.6262e-3
3.3422	2992.0000	1.4923	2.5926e-3
3.3467	2988.0000	1.4919	2.5598e-3
3.3512	2984.0000	1.4914	2.5277e-3
3.3557	2980.0000	1.4910	2.4963e-3
3.3602	2976.0000	1.4906	2.4656e-3
3.3647	2972.0000	1.4902	2.4356e-3
3.3693	2968.0000	1.4898	2.4063e-3
3.3738	2964.0000	1.4894	2.3776e-3
3.3784	2960.0000	1.4890	2.3495e-3
3.3829	2956.0000	1.4887	2.3220e-3
3.3875	2952.0000	1.4883	2.2951e-3
3.3921	2948.0000	1.4879	2.2688e-3
3.3967	2944.0000	1.4875	2.2431e-3
3.4014	2940.0000	1.4871	2.2179e-3
3.4060	2936.0000	1.4868	2.1932e-3
3.4106	2932.0000	1.4864	2.1690e-3
3.4153	2928.0000	1.4861	2.1454e-3
3.4200	2924.0000	1.4857	2.1222e-3
3.4247	2920.0000	1.4853	2.0996e-3
3.4294	2916.0000	1.4850	2.0774e-3
3.4341	2912.0000	1.4846	2.0556e-3
3.4388	2908.0000	1.4843	2.0343e-3
3.4435	2904.0000	1.4839	2.0134e-3
3.4483	2900.0000	1.4836	1.9930e-3
3.4530	2896.0000	1.4833	1.9729e-3
3.4578	2892.0000	1.4829	1.9533e-3
3.4626	2888.0000	1.4826	1.9340e-3
3.4674	2884.0000	1.4823	1.9152e-3
3.4722	2880.0000	1.4820	1.8967e-3
3.4771	2876.0000	1.4816	1.8786e-3
3.4819	2872.0000	1.4813	1.8608e-3
3.4868	2868.0000	1.4810	1.8434e-3
3.4916	2864.0000	1.4807	1.8264e-3
3.4965	2860.0000	1.4804	1.8096e-3
3.5014	2856.0000	1.4800	1.7932e-3
3.5063	2852.0000	1.4797	1.7772e-3
3.5112	2848.0000	1.4794	1.7614e-3
3.5162	2844.0000	1.4791	1.7459e-3
3.5211	2840.0000	1.4788	1.7308e-3
3.5261	2836.0000	1.4785	1.7159e-3
3.5311	2832.0000	1.4782	1.7013e-3
3.5361	2828.0000	1.4779	1.6870e-3
3.5411	2824.0000	1.4776	1.6730e-3
3.5461	2820.0000	1.4773	1.6592e-3
3.5511	2816.0000	1.4770	1.6457e-3
3.5562	2812.0000	1.4767	1.6325e-3
3.5613	2808.0000	1.4764	1.6195e-3
3.5663	2804.0000	1.4762	1.6068e-3
3.5714	2800.0000	1.4759	1.5943e-3
3.5765	2796.0000	1.4756	1.5820e-3
3.5817	2792.0000	1.4753	1.5700e-3
3.5868	2788.0000	1.4750	1.5582e-3
3.5920	2784.0000	1.4747	1.5466e-3
3.5971	2780.0000	1.4745	1.5353e-3
3.6023	2776.0000	1.4742	1.5241e-3
3.6075	2772.0000	1.4739	1.5132e-3
3.6127	2768.0000	1.4736	1.5025e-3
3.6179	2764.0000	1.4734	1.4920e-3
3.6232	2760.0000	1.4731	1.4817e-3
3.6284	2756.0000	1.4728	1.4716e-3
3.6337	2752.0000	1.4725	1.4616e-3
3.6390	2748.0000	1.4723	1.4519e-3
3.6443	2744.0000	1.4720	1.4423e-3
3.6496	2740.0000	1.4717	1.4330e-3
3.6550	2736.0000	1.4715	1.4238e-3
3.6603	2732.0000	1.4712	1.4148e-3
3.6657	2728.0000	1.4709	1.4059e-3
3.6711	2724.0000	1.4707	1.3972e-3
3.6765	2720.0000	1.4704	1.3887e-3
3.6819	2716.0000	1.4702	1.3804e-3
3.6873	2712.0000	1.4699	1.3722e-3
3.6928	2708.0000	1.4696	1.3642e-3
3.6982	2704.0000	1.4694	1.3563e-3
3.7037	2700.0000	1.4691	1.3486e-3
3.7092	2696.0000	1.4689	1.3411e-3
3.7147	2692.0000	1.4686	1.3336e-3
3.7202	2688.0000	1.4684	1.3264e-3
3.7258	2684.0000	1.4681	1.3192e-3
3.7313	2680.0000	1.4678	1.3123e-3
3.7369	2676.0000	1.4676	1.3054e-3
3.7425	2672.0000	1.4673	1.2987e-3
3.7481	2668.0000	1.4671	1.2922e-3
3.7538	2664.0000	1.4668	1.2857e-3
3.7594	2660.0000	1.4666	1.2794e-3
3.7651	2656.0000	1.4663	1.2732e-3
3.7707	2652.0000	1.4661	1.2672e-3
3.7764	2648.0000	1.4658	1.2613e-3
3.7821	2644.0000	1.4656	1.2555e-3
3.7879	2640.0000	1.4653	1.2498e-3
3.7936	2636.0000	1.4651	1.2443e-3
3.7994	2632.0000	1.4648	1.2388e-3
3.8052	2628.0000	1.4646	1.2335e-3
3.8110	2624.0000	1.4643	1.2283e-3
3.8168	2620.0000	1.4641	1.2232e-3
3.8226	2616.0000	1.4639	1.2182e-3
3.8285	2612.0000	1.4636	1.2134e-3
3.8344	2608.0000	1.4634	1.2086e-3
3.8402	2604.0000	1.4631	1.2040e-3
3.8462	2600.0000	1.4629	1.1995e-3
3.8521	2596.0000	1.4626	1.1950e-3
3.8580	2592.0000	1.4624	1.1907e-3
3.8640	2588.0000	1.4621	1.1865e-3
3.8700	2584.0000	1.4619	1.1824e-3
3.8760	2580.0000	1.4617	1.1784e-3
3.8820	2576.0000	1.4614	1.1745e-3
3.8880	2572.0000	1.4612	1.1706e-3
3.8941	2568.0000	1.4609	1.1669e-3
3.9002	2564.0000	1.4607	1.1633e-3
3.9063	2560.0000	1.4604	1.1598e-3
3.9124	2556.0000	1.4602	1.1564e-3
3.9185	2552.0000	1.4600	1.1530e-3
3.9246	2548.0000	1.4597	1.1498e-3
3.9308	2544.0000	1.4595	1.1466e-3
3.9370	2540.0000	1.4592	1.1436e-3
3.9432	2536.0000	1.4590	1.1406e-3
3.9494	2532.0000	1.4587	1.1378e-3
3.9557	2528.0000	1.4585	1.1350e-3
3.9620	2524.0000	1.4582	1.1323e-3
3.9683	2520.0000	1.4580	1.1297e-3
3.9746	2516.0000	1.4578	1.1272e-3
3.9809	2512.0000	1.4575	1.1247e-3
3.9872	2508.0000	1.4573	1.1224e-3
3.9936	2504.0000	1.4570	1.1201e-3
4.0000	2500.0000	1.4568	1.1180e-3
4.0064	2496.0000	1.4565	1.1159e-3
4.0128	2492.0000	1.4563	1.1139e-3
4.0193	2488.0000	1.4560	1.1119e-3
4.0258	2484.0000	1.4558	1.1101e-3
4.0323	2480.0000	1.4556	1.1084e-3
4.0388	2476.0000	1.4553	1.1067e-3
4.0453	2472.0000	1.4551	1.1051e-3
4.0519	2468.0000	1.4548	1.1036e-3
4.0584	2464.0000	1.4546	1.1021e-3
4.0650	2460.0000	1.4543	1.1008e-3
4.0717	2456.0000	1.4541	1.0995e-3
4.0783	2452.0000	1.4538	1.0983e-3
4.0850	2448.0000	1.4536	1.0972e-3
4.0917	2444.0000	1.4533	1.0962e-3
4.0984	2440.0000	1.4531	1.0952e-3
4.1051	2436.0000	1.4528	1.0944e-3
4.1118	2432.0000	1.4526	1.0936e-3
4.1186	2428.0000	1.4523	1.0929e-3
4.1254	2424.0000	1.4521	1.0922e-3
4.1322	2420.0000	1.4518	1.0917e-3
4.1391	2416.0000	1.4516	1.0912e-3
4.1459	2412.0000	1.4513	1.0908e-3
4.1528	2408.0000	1.4511	1.0905e-3
4.1597	2404.0000	1.4508	1.0902e-3
4.1667	2400.0000	1.4505	1.0900e-3
4.1736	2396.0000	1.4503	1.0900e-3
4.1806	2392.0000	1.4500	1.0899e-3
4.1876	2388.0000	1.4498	1.0900e-3
4.1946	2384.0000	1.4495	1.0901e-3
4.2017	2380.0000	1.4493	1.0904e-3
4.2088	2376.0000	1.4490	1.0907e-3
4.2159	2372.0000	1.4487	1.0910e-3
4.2230	2368.0000	1.4485	1.0915e-3
4.2301	2364.0000	1.4482	1.0920e-3
4.2373	2360.0000	1.4479	1.0926e-3
4.2445	2356.0000	1.4477	1.0933e-3
4.2517	2352.0000	1.4474	1.0941e-3
4.2589	2348.0000	1.4472	1.0950e-3
4.2662	2344.0000	1.4469	1.0959e-3
4.2735	2340.0000	1.4466	1.0969e-3
4.2808	2336.0000	1.4463	1.0980e-3
4.2882	2332.0000	1.4461	1.0992e-3
4.2955	2328.0000	1.4458	1.1004e-3
4.3029	2324.0000	1.4455	1.1017e-3
4.3103	2320.0000	1.4453	1.1032e-3
4.3178	2316.0000	1.4450	1.1047e-3
4.3253	2312.0000	1.4447	1.1062e-3
4.3328	2308.0000	1.4444	1.1079e-3
4.3403	2304.0000	1.4442	1.1097e-3
4.3478	2300.0000	1.4439	1.1115e-3
4.3554	2296.0000	1.4436	1.1134e-3
4.3630	2292.0000	1.4433	1.1154e-3
4.3706	2288.0000	1.4430	1.1175e-3
4.3783	2284.0000	1.4427	1.1197e-3
4.3860	2280.0000	1.4425	1.1220e-3
4.3937	2276.0000	1.4422	1.1243e-3
4.4014	2272.0000	1.4419	1.1268e-3
4.4092	2268.0000	1.4416	1.1293e-3
4.4170	2264.0000	1.4413	1.1319e-3
4.4248	2260.0000	1.4410	1.1347e-3
4.4326	2256.0000	1.4407	1.1375e-3
4.4405	2252.0000	1.4404	1.1404e-3
4.4484	2248.0000	1.4401	1.1434e-3
4.4563	2244.0000	1.4398	1.1465e-3
4.4643	2240.0000	1.4395	1.1497e-3
4.4723	2236.0000	1.4392	1.1530e-3
4.4803	2232.0000	1.4389	1.1564e-3
4.4883	2228.0000	1.4386	1.1599e-3
4.4964	2224.0000	1.4383	1.1636e-3
4.5045	2220.0000	1.4380	1.1673e-3
4.5126	2216.0000	1.4377	1.1711e-3
4.5208	2212.0000	1.4374	1.1750e-3
4.5290	2208.0000	1.4370	1.1791e-3
4.5372	2204.0000	1.4367	1.1832e-3
4.5455	2200.0000	1.4364	1.1875e-3
4.5537	2196.0000	1.4361	1.1919e-3
4.5620	2192.0000	1.4358	1.1964e-3
4.5704	2188.0000	1.4354	1.2010e-3
4.5788	2184.0000	1.4351	1.2057e-3
4.5872	2180.0000	1.4348	1.2106e-3
4.5956	2176.0000	1.4345	1.2156e-3
4.6041	2172.0000	1.4341	1.2207e-3
4.6125	2168.0000	1.4338	1.2259e-3
4.6211	2164.0000	1.4334	1.2313e-3
4.6296	2160.0000	1.4331	1.2368e-3
4.6382	2156.0000	1.4328	1.2425e-3
4.6468	2152.0000	1.4324	1.2483e-3
4.6555	2148.0000	1.4321	1.2542e-3
4.6642	2144.0000	1.4317	1.2603e-3
4.6729	2140.0000	1.4314	1.2665e-3
4.6816	2136.0000	1.4310	1.2729e-3
4.6904	2132.0000	1.4306	1.2795e-3
4.6992	2128.0000	1.4303	1.2862e-3
4.7081	2124.0000	1.4299	1.2931e-3
4.7170	2120.0000	1.4295	1.3001e-3
4.7259	2116.0000	1.4292	1.3073e-3
4.7348	2112.0000	1.4288	1.3147e-3
4.7438	2108.0000	1.4284	1.3223e-3
4.7529	2104.0000	1.4280	1.3300e-3
4.7619	2100.0000	1.4277	1.3380e-3
4.7710	2096.0000	1.4273	1.3461e-3
4.7801	2092.0000	1.4269	1.3545e-3
4.7893	2088.0000	1.4265	1.3631e-3
4.7985	2084.0000	1.4261	1.3718e-3
4.8077	2080.0000	1.4257	1.3808e-3
4.8170	2076.0000	1.4253	1.3900e-3
4.8263	2072.0000	1.4249	1.3995e-3
4.8356	2068.0000	1.4245	1.4092e-3
4.8450	2064.0000	1.4241	1.4191e-3
4.8544	2060.0000	1.4236	1.4293e-3
4.8638	2056.0000	1.4232	1.4398e-3
4.8733	2052.0000	1.4228	1.4505e-3
4.8828	2048.0000	1.4224	1.4616e-3
4.8924	2044.0000	1.4219	1.4729e-3
4.9020	2040.0000	1.4215	1.4845e-3
4.9116	2036.0000	1.4210	1.4964e-3
4.9213	2032.0000	1.4206	1.5087e-3
4.9310	2028.0000	1.4201	1.5213e-3
4.9407	2024.0000	1.4197	1.5342e-3
4.9505	2020.0000	1.4192	1.5475e-3
4.9603	2016.0000	1.4187	1.5612e-3
4.9702	2012.0000	1.4183	1.5753e-3
4.9801	2008.0000	1.4178	1.5898e-3
4.9900	2004.0000	1.4173	1.6047e-3
5.0000	2000.0000	1.4168	1.6201e-3
5.0050	1998.0000	1.4166	1.6279e-3
5.0100	1996.0000	1.4163	1.6359e-3
5.0150	1994.0000	1.4161	1.6440e-3
5.0201	1992.0000	1.4158	1.6522e-3
5.0251	1990.0000	1.4155	1.6605e-3
5.0302	1988.0000	1.4153	1.6690e-3
5.0352	1986.0000	1.4150	1.6776e-3
5.0403	1984.0000	1.4148	1.6863e-3
5.0454	1982.0000	1.4145	1.6952e-3
5.0505	1980.0000	1.4142	1.7042e-3
5.0556	1978.0000	1.4140	1.7134e-3
5.0607	1976.0000	1.4137	1.7227e-3
5.0659	1974.0000	1.4134	1.7321e-3
5.0710	1972.0000	1.4132	1.7417e-3
5.0761	1970.0000	1.4129	1.7515e-3
5.0813	1968.0000	1.4126	1.7615e-3
5.0865	1966.0000	1.4124	1.7716e-3
5.0916	1964.0000	1.4121	1.7818e-3
5.0968	1962.0000	1.4118	1.7923e-3
5.1020	1960.0000	1.4115	1.8029e-3
5.1073	1958.0000	1.4112	1.8137e-3
5.1125	1956.0000	1.4110	1.8247e-3
5.1177	1954.0000	1.4107	1.8359e-3
5.1230	1952.0000	1.4104	1.8473e-3
5.1282	1950.0000	1.4101	1.8589e-3
5.1335	1948.0000	1.4098	1.8707e-3
5.1387	1946.0000	1.4095	1.8827e-3
5.1440	1944.0000	1.4092	1.8950e-3
5.1493	1942.0000	1.4089	1.9075e-3
5.1546	1940.0000	1.4086	1.9202e-3
5.1600	1938.0000	1.4083	1.9331e-3
5.1653	1936.0000	1.4080	1.9463e-3
5.1706	1934.0000	1.4077	1.9598e-3
5.1760	1932.0000	1.4074	1.9735e-3
5.1813	1930.0000	1.4070	1.9875e-3
5.1867	1928.0000	1.4067	2.0018e-3
5.1921	1926.0000	1.4064	2.0163e-3
5.1975	1924.0000	1.4061	2.0312e-3
5.2029	1922.0000	1.4058	2.0463e-3
5.2083	1920.0000	1.4054	2.0618e-3
5.2138	1918.0000	1.4051	2.0776e-3
5.2192	1916.0000	1.4048	2.0938e-3
5.2247	1914.0000	1.4044	2.1102e-3
5.2301	1912.0000	1.4041	2.1271e-3
5.2356	1910.0000	1.4037	2.1443e-3
5.2411	1908.0000	1.4034	2.1619e-3
5.2466	1906.0000	1.4030	2.1799e-3
5.2521	1904.0000	1.4027	2.1983e-3
5.2576	1902.0000	1.4023	2.2171e-3
5.2632	1900.0000	1.4020	2.2363e-3
5.2687	1898.0000	1.4016	2.2560e-3
5.2743	1896.0000	1.4012	2.2762e-3
5.2798	1894.0000	1.4009	2.2969e-3
5.2854	1892.0000	1.4005	2.3180e-3
5.2910	1890.0000	1.4001	2.3397e-3
5.2966	1888.0000	1.3997	2.3619e-3
5.3022	1886.0000	1.3993	2.3847e-3
5.3079	1884.0000	1.3990	2.4081e-3
5.3135	1882.0000	1.3986	2.4320e-3
5.3191	1880.0000	1.3982	2.4566e-3
5.3248	1878.0000	1.3978	2.4819e-3
5.3305	1876.0000	1.3974	2.5078e-3
5.3362	1874.0000	1.3969	2.5345e-3
5.3419	1872.0000	1.3965	2.5618e-3
5.3476	1870.0000	1.3961	2.5900e-3
5.3533	1868.0000	1.3957	2.6189e-3
5.3591	1866.0000	1.3952	2.6487e-3
5.3648	1864.0000	1.3948	2.6793e-3
5.3706	1862.0000	1.3944	2.7109e-3
5.3763	1860.0000	1.3939	2.7434e-3
5.3821	1858.0000	1.3934	2.7768e-3
5.3879	1856.0000	1.3930	2.8114e-3
5.3937	1854.0000	1.3925	2.8469e-3
5.3996	1852.0000	1.3920	2.8837e-3
5.4054	1850.0000	1.3916	2.9216e-3
5.4113	1848.0000	1.3911	2.9607e-3
5.4171	1846.0000	1.3906	3.0012e-3
5.4230	1844.0000	1.3901	3.0430e-3
5.4289	1842.0000	1.3896	3.0862e-3
5.4348	1840.0000	1.3891	3.1309e-3
5.4407	1838.0000	1.3885	3.1772e-3
5.4466	1836.0000	1.3880	3.2252e-3
5.4526	1834.0000	1.3875	3.2749e-3
5.4585	1832.0000	1.3869	3.3265e-3
5.4645	1830.0000	1.3863	3.3800e-3
5.4705	1828.0000	1.3858	3.4355e-3
5.4765	1826.0000	1.3852	3.4932e-3
5.4825	1824.0000	1.3846	3.5532e-3
5.4885	1822.0000	1.3840	3.6156e-3
5.4945	1820.0000	1.3834	3.6805e-3
5.5006	1818.0000	1.3828	3.7482e-3
5.5066	1816.0000	1.3821	3.8187e-3
5.5127	1814.0000	1.3815	3.8922e-3
5.5188	1812.0000	1.3808	3.9690e-3
5.5249	1810.0000	1.3802	4.0492e-3
5.5310	1808.0000	1.3795	4.1330e-3
5.5371	1806.0000	1.3788	4.2208e-3
5.5432	1804.0000	1.3781	4.3127e-3
5.5494	1802.0000	1.3773	4.4090e-3
5.5556	1800.0000	1.3766	4.5100e-3
5.5617	1798.0000	1.3758	4.6161e-3
5.5679	1796.0000	1.3750	4.7276e-3
5.5741	1794.0000	1.3742	4.8449e-3
5.5804	1792.0000	1.3734	4.9684e-3
5.5866	1790.0000	1.3726	5.0986e-3
5.5928	1788.0000	1.3717	5.2361e-3
5.5991	1786.0000	1.3708	5.3813e-3
5.6054	1784.0000	1.3699	5.5350e-3
5.6117	1782.0000	1.3689	5.6977e-3
5.6180	1780.0000	1.3680	5.8702e-3
5.6243	1778.0000	1.3670	6.0534e-3
5.6306	1776.0000	1.3659	6.2482e-3
5.6370	1774.0000	1.3649	6.4556e-3
5.6433	1772.0000	1.3638	6.6768e-3
5.6497	1770.0000	1.3627	6.9130e-3
5.6561	1768.0000	1.3615	7.1657e-3
5.6625	1766.0000	1.3603	7.4364e-3
5.6689	1764.0000	1.3590	7.7269e-3
5.6754	1762.0000	1.3577	8.0393e-3
5.6818	1760.0000	1.3563	8.3758e-3
5.6883	1758.0000	1.3549	8.7390e-3
5.6948	1756.0000	1.3534	9.1319e-3
5.7013	1754.0000	1.3519	9.5577e-3
5.7078	1752.0000	1.3503	0.0100
5.7143	1750.0000	1.3486	0.0105
5.7208	1748.0000	1.3469	0.0111
5.7274	1746.0000	1.3450	0.0117
5.7339	1744.0000	1.3431	0.0123
5.7405	1742.0000	1.3410	0.0131
5.7471	1740.0000	1.3389	0.0139
5.7537	1738.0000	1.3366	0.0148
5.7604	1736.0000	1.3342	0.0158
5.7670	1734.0000	1.3317	0.0169
5.7737	1732.0000	1.3289	0.0181
5.7803	1730.0000	1.3261	0.0195
5.7870	1728.0000	1.3230	0.0211
5.7937	1726.0000	1.3197	0.0229
5.8005	1724.0000	1.3162	0.0249
5.8072	1722.0000	1.3124	0.0273
5.8140	1720.0000	1.3084	0.0300
5.8207	1718.0000	1.3040	0.0331
5.8275	1716.0000	1.2994	0.0368
5.8343	1714.0000	1.2944	0.0412
5.8411	1712.0000	1.2890	0.0463
5.8480	1710.0000	1.2834	0.0525
5.8548	1708.0000	1.2774	0.0599
5.8617	1706.0000	1.2712	0.0688
5.8685	1704.0000	1.2650	0.0797
5.8754	1702.0000	1.2591	0.0931
5.8824	1700.0000	1.2541	0.1094
5.8893	1698.0000	1.2509	0.1292
5.8962	1696.0000	1.2511	0.1529
5.9032	1694.0000	1.2566	0.1802
5.9102	1692.0000	1.2701	0.2099
5.9172	1690.0000	1.2938	0.2387
5.9242	1688.0000	1.3284	0.2618
5.9312	1686.0000	1.3712	0.2736
5.9382	1684.0000	1.4163	0.2707
5.9453	1682.0000	1.4566	0.2538
5.9524	1680.0000	1.4870	0.2277
5.9595	1678.0000	1.5064	0.1979
5.9666	1676.0000	1.5162	0.1688
5.9737	1674.0000	1.5192	0.1428
5.9809	1672.0000	1.5177	0.1207
5.9880	1670.0000	1.5135	0.1024
5.9952	1668.0000	1.5080	0.0874
6.0024	1666.0000	1.5019	0.0752
6.0096	1664.0000	1.4956	0.0652
6.0168	1662.0000	1.4894	0.0569
6.0241	1660.0000	1.4835	0.0501
6.0314	1658.0000	1.4779	0.0444
6.0386	1656.0000	1.4726	0.0396
6.0459	1654.0000	1.4677	0.0356
6.0533	1652.0000	1.4630	0.0322
6.0606	1650.0000	1.4587	0.0292
6.0680	1648.0000	1.4547	0.0267
6.0753	1646.0000	1.4510	0.0245
6.0827	1644.0000	1.4474	0.0226
6.0901	1642.0000	1.4441	0.0209
6.0976	1640.0000	1.4410	0.0194
6.1050	1638.0000	1.4381	0.0181
6.1125	1636.0000	1.4353	0.0170
6.1200	1634.0000	1.4327	0.0159
6.1275	1632.0000	1.4302	0.0150
6.1350	1630.0000	1.4278	0.0142
6.1425	1628.0000	1.4256	0.0134
6.1501	1626.0000	1.4234	0.0128
6.1576	1624.0000	1.4214	0.0121
6.1652	1622.0000	1.4194	0.0116
6.1728	1620.0000	1.4175	0.0111
6.1805	1618.0000	1.4156	0.0106
6.1881	1616.0000	1.4139	0.0102
6.1958	1614.0000	1.4122	9.8073e-3
6.2035	1612.0000	1.4105	9.4516e-3
6.2112	1610.0000	1.4089	9.1244e-3
6.2189	1608.0000	1.4074	8.8230e-3
6.2267	1606.0000	1.4059	8.5448e-3
6.2344	1604.0000	1.4044	8.2877e-3
6.2422	1602.0000	1.4030	8.0499e-3
6.2500	1600.0000	1.4016	7.8295e-3
6.2578	1598.0000	1.4003	7.6251e-3
6.2657	1596.0000	1.3989	7.4354e-3
6.2735	1594.0000	1.3976	7.2590e-3
6.2814	1592.0000	1.3964	7.0950e-3
6.2893	1590.0000	1.3951	6.9424e-3
6.2972	1588.0000	1.3939	6.8002e-3
6.3052	1586.0000	1.3927	6.6677e-3
6.3131	1584.0000	1.3915	6.5442e-3
6.3211	1582.0000	1.3903	6.4289e-3
6.3291	1580.0000	1.3892	6.3214e-3
6.3371	1578.0000	1.3880	6.2211e-3
6.3452	1576.0000	1.3869	6.1274e-3
6.3532	1574.0000	1.3858	6.0400e-3
6.3613	1572.0000	1.3847	5.9584e-3
6.3694	1570.0000	1.3836	5.8823e-3
6.3776	1568.0000	1.3825	5.8113e-3
6.3857	1566.0000	1.3815	5.7451e-3
6.3939	1564.0000	1.3804	5.6835e-3
6.4020	1562.0000	1.3794	5.6261e-3
6.4103	1560.0000	1.3783	5.5727e-3
6.4185	1558.0000	1.3773	5.5230e-3
6.4267	1556.0000	1.3763	5.4770e-3
6.4350	1554.0000	1.3752	5.4343e-3
6.4433	1552.0000	1.3742	5.3949e-3
6.4516	1550.0000	1.3732	5.3585e-3
6.4599	1548.0000	1.3722	5.3250e-3
6.4683	1546.0000	1.3712	5.2943e-3
6.4767	1544.0000	1.3702	5.2662e-3
6.4851	1542.0000	1.3692	5.2406e-3
6.4935	1540.0000	1.3682	5.2173e-3
6.5020	1538.0000	1.3672	5.1964e-3
6.5104	1536.0000	1.3662	5.1777e-3
6.5189	1534.0000	1.3652	5.1611e-3
6.5274	1532.0000	1.3642	5.1465e-3
6.5359	1530.0000	1.3632	5.1338e-3
6.5445	1528.0000	1.3622	5.1230e-3
6.5531	1526.0000	1.3612	5.1140e-3
6.5617	1524.0000	1.3602	5.1068e-3
6.5703	1522.0000	1.3592	5.1012e-3
6.5789	1520.0000	1.3582	5.0973e-3
6.5876	1518.0000	1.3572	5.0950e-3
6.5963	1516.0000	1.3562	5.0942e-3
6.6050	1514.0000	1.3552	5.0949e-3
6.6138	1512.0000	1.3542	5.0970e-3
6.6225	1510.0000	1.3531	5.1006e-3
6.6313	1508.0000	1.3521	5.1055e-3
6.6401	1506.0000	1.3511	5.1118e-3
6.6489	1504.0000	1.3501	5.1194e-3
6.6578	1502.0000	1.3490	5.1283e-3
6.6667	1500.0000	1.3480	5.1385e-3
6.6756	1498.0000	1.3470	5.1499e-3
6.6845	1496.0000	1.3459	5.1626e-3
6.6934	1494.0000	1.3449	5.1764e-3
6.7024	1492.0000	1.3438	5.1915e-3
6.7114	1490.0000	1.3427	5.2077e-3
6.7204	1488.0000	1.3417	5.2251e-3
6.7295	1486.0000	1.3406	5.2436e-3
6.7385	1484.0000	1.3395	5.2633e-3
6.7476	1482.0000	1.3384	5.2842e-3
6.7568	1480.0000	1.3373	5.3061e-3
6.7659	1478.0000	1.3362	5.3292e-3
6.7751	1476.0000	1.3351	5.3534e-3
6.7843	1474.0000	1.3340	5.3787e-3
6.7935	1472.0000	1.3329	5.4051e-3
6.8027	1470.0000	1.3317	5.4326e-3
6.8120	1468.0000	1.3306	5.4613e-3
6.8213	1466.0000	1.3294	5.4910e-3
6.8306	1464.0000	1.3283	5.5219e-3
6.8399	1462.0000	1.3271	5.5539e-3
6.8493	1460.0000	1.3259	5.5870e-3
6.8587	1458.0000	1.3247	5.6213e-3
6.8681	1456.0000	1.3235	5.6567e-3
6.8776	1454.0000	1.3223	5.6932e-3
6.8871	1452.0000	1.3211	5.7309e-3
6.8966	1450.0000	1.3198	5.7698e-3
6.9061	1448.0000	1.3186	5.8099e-3
6.9156	1446.0000	1.3173	5.8512e-3
6.9252	1444.0000	1.3160	5.8936e-3
6.9348	1442.0000	1.3147	5.9373e-3
6.9444	1440.0000	1.3134	5.9823e-3
6.9541	1438.0000	1.3121	6.0285e-3
6.9638	1436.0000	1.3108	6.0760e-3
6.9735	1434.0000	1.3094	6.1248e-3
6.9832	1432.0000	1.3081	6.1749e-3
6.9930	1430.0000	1.3067	6.2263e-3
7.0028	1428.0000	1.3053	6.2792e-3
7.0126	1426.0000	1.3039	6.3334e-3
7.0225	1424.0000	1.3025	6.3890e-3
7.0323	1422.0000	1.3011	6.4461e-3
7.0423	1420.0000	1.2996	6.5047e-3
7.0522	1418.0000	1.2981	6.5648e-3
7.0621	1416.0000	1.2967	6.6265e-3
7.0721	1414.0000	1.2952	6.6897e-3
7.0822	1412.0000	1.2936	6.7546e-3
7.0922	1410.0000	1.2921	6.8211e-3
7.1023	1408.0000	1.2905	6.8893e-3
7.1124	1406.0000	1.2889	6.9592e-3
7.1225	1404.0000	1.2873	7.0309e-3
7.1327	1402.0000	1.2857	7.1045e-3
7.1429	1400.0000	1.2841	7.1799e-3
7.1531	1398.0000	1.2824	7.2573e-3
7.1633	1396.0000	1.2807	7.3366e-3
7.1736	1394.0000	1.2790	7.4180e-3
7.1839	1392.0000	1.2773	7.5014e-3
7.1942	1390.0000	1.2755	7.5871e-3
7.2046	1388.0000	1.2737	7.6749e-3
7.2150	1386.0000	1.2719	7.7650e-3
7.2254	1384.0000	1.2700	7.8575e-3
7.2359	1382.0000	1.2682	7.9524e-3
7.2464	1380.0000	1.2663	8.0498e-3
7.2569	1378.0000	1.2644	8.1497e-3
7.2674	1376.0000	1.2624	8.2523e-3
7.2780	1374.0000	1.2604	8.3577e-3
7.2886	1372.0000	1.2584	8.4659e-3
7.2993	1370.0000	1.2564	8.5771e-3
7.3099	1368.0000	1.2543	8.6912e-3
7.3206	1366.0000	1.2522	8.8085e-3
7.3314	1364.0000	1.2500	8.9291e-3
7.3421	1362.0000	1.2478	9.0530e-3
7.3529	1360.0000	1.2456	9.1804e-3
7.3638	1358.0000	1.2434	9.3114e-3
7.3746	1356.0000	1.2411	9.4462e-3
7.3855	1354.0000	1.2387	9.5848e-3
7.3964	1352.0000	1.2363	9.7274e-3
7.4074	1350.0000	1.2339	9.8743e-3
7.4184	1348.0000	1.2315	0.0100
7.4294	1346.0000	1.2289	0.0102
7.4405	1344.0000	1.2264	0.0103
7.4516	1342.0000	1.2238	0.0105
7.4627	1340.0000	1.2211	0.0107
7.4738	1338.0000	1.2184	0.0109
7.4850	1336.0000	1.2157	0.0110
7.4963	1334.0000	1.2128	0.0112
7.5075	1332.0000	1.2100	0.0114
7.5188	1330.0000	1.2071	0.0116
7.5301	1328.0000	1.2041	0.0118
7.5415	1326.0000	1.2010	0.0120
7.5529	1324.0000	1.1979	0.0123
7.5643	1322.0000	1.1947	0.0125
7.5758	1320.0000	1.1915	0.0127
7.5873	1318.0000	1.1882	0.0130
7.5988	1316.0000	1.1848	0.0132
7.6104	1314.0000	1.1813	0.0135
7.6220	1312.0000	1.1777	0.0137
7.6336	1310.0000	1.1741	0.0140
7.6453	1308.0000	1.1704	0.0143
7.6570	1306.0000	1.1666	0.0146
7.6687	1304.0000	1.1627	0.0149
7.6805	1302.0000	1.1587	0.0152
7.6923	1300.0000	1.1546	0.0156
7.7042	1298.0000	1.1504	0.0159
7.7160	1296.0000	1.1461	0.0163
7.7280	1294.0000	1.1417	0.0167
7.7399	1292.0000	1.1372	0.0171
7.7519	1290.0000	1.1325	0.0175
7.7640	1288.0000	1.1278	0.0179
7.7760	1286.0000	1.1229	0.0184
7.7882	1284.0000	1.1178	0.0188
7.8003	1282.0000	1.1126	0.0193
7.8125	1280.0000	1.1073	0.0199
7.8247	1278.0000	1.1018	0.0204
7.8370	1276.0000	1.0961	0.0210
7.8493	1274.0000	1.0902	0.0216
7.8616	1272.0000	1.0842	0.0222
7.8740	1270.0000	1.0780	0.0228
7.8864	1268.0000	1.0716	0.0235
7.8989	1266.0000	1.0650	0.0242
7.9114	1264.0000	1.0581	0.0250
7.9239	1262.0000	1.0510	0.0258
7.9365	1260.0000	1.0437	0.0267
7.9491	1258.0000	1.0360	0.0276
7.9618	1256.0000	1.0282	0.0285
7.9745	1254.0000	1.0200	0.0295
7.9872	1252.0000	1.0115	0.0306
8.0000	1250.0000	1.0027	0.0318
8.0128	1248.0000	0.9935	0.0330
8.0257	1246.0000	0.9839	0.0343
8.0386	1244.0000	0.9739	0.0357
8.0515	1242.0000	0.9635	0.0372
8.0645	1240.0000	0.9527	0.0388
8.0775	1238.0000	0.9413	0.0405
8.0906	1236.0000	0.9294	0.0424
8.1037	1234.0000	0.9170	0.0444
8.1169	1232.0000	0.9039	0.0466
8.1301	1230.0000	0.8901	0.0490
8.1433	1228.0000	0.8756	0.0516
8.1566	1226.0000	0.8603	0.0544
8.1699	1224.0000	0.8442	0.0575
8.1833	1222.0000	0.8271	0.0610
8.1967	1220.0000	0.8089	0.0648
8.2102	1218.0000	0.7896	0.0691
8.2237	1216.0000	0.7690	0.0739
8.2372	1214.0000	0.7470	0.0793
8.2508	1212.0000	0.7234	0.0854
8.2645	1210.0000	0.6980	0.0925
8.2781	1208.0000	0.6706	0.1007
8.2919	1206.0000	0.6409	0.1104
8.3056	1204.0000	0.6087	0.1219
8.3195	1202.0000	0.5735	0.1359
8.3333	1200.0000	0.5352	0.1532
8.3472	1198.0000	0.4936	0.1750
8.3612	1196.0000	0.4489	0.2031
8.3752	1194.0000	0.4023	0.2395
8.3893	1192.0000	0.3569	0.2859
8.4034	1190.0000	0.3165	0.3420
8.4175	1188.0000	0.2843	0.4048
8.4317	1186.0000	0.2606	0.4705
8.4459	1184.0000	0.2440	0.5367
8.4602	1182.0000	0.2328	0.6023
8.4746	1180.0000	0.2256	0.6672
8.4890	1178.0000	0.2216	0.7316
8.5034	1176.0000	0.2200	0.7958
8.5179	1174.0000	0.2205	0.8602
8.5324	1172.0000	0.2230	0.9252
8.5470	1170.0000	0.2273	0.9912
8.5616	1168.0000	0.2333	1.0586
8.5763	1166.0000	0.2413	1.1279
8.5911	1164.0000	0.2513	1.1994
8.6059	1162.0000	0.2635	1.2736
8.6207	1160.0000	0.2784	1.3511
8.6356	1158.0000	0.2963	1.4325
8.6505	1156.0000	0.3179	1.5182
8.6655	1154.0000	0.3441	1.6091
8.6806	1152.0000	0.3758	1.7058
8.6957	1150.0000	0.4148	1.8091
8.7108	1148.0000	0.4630	1.9197
8.7260	1146.0000	0.5234	2.0381
8.7413	1144.0000	0.5996	2.1642
8.7566	1142.0000	0.6970	2.2968
8.7719	1140.0000	0.8216	2.4318
8.7873	1138.0000	0.9797	2.5610
8.8028	1136.0000	1.1731	2.6694
8.8183	1134.0000	1.3908	2.7387
8.8339	1132.0000	1.6025	2.7623
8.8496	1130.0000	1.7740	2.7716
8.8652	1128.0000	1.9181	2.8370
8.8810	1126.0000	2.1344	3.0052
8.8968	1124.0000	2.5805	3.2002
8.9127	1122.0000	3.3081	3.1360
8.9286	1120.0000	3.9488	2.5551
8.9445	1118.0000	4.1022	1.7966
8.9606	1116.0000	3.9448	1.2389
8.9767	1114.0000	3.7154	0.8908
8.9928	1112.0000	3.4996	0.6724
9.0090	1110.0000	3.3143	0.5287
9.0253	1108.0000	3.1581	0.4292
9.0416	1106.0000	3.0260	0.3572
9.0580	1104.0000	2.9133	0.3032
9.0744	1102.0000	2.8161	0.2615
9.0909	1100.0000	2.7314	0.2285
9.1075	1098.0000	2.6569	0.2018
9.1241	1096.0000	2.5908	0.1799
9.1408	1094.0000	2.5318	0.1617
9.1575	1092.0000	2.4787	0.1463
9.1743	1090.0000	2.4306	0.1332
9.1912	1088.0000	2.3869	0.1219
9.2081	1086.0000	2.3469	0.1121
9.2251	1084.0000	2.3102	0.1035
9.2421	1082.0000	2.2764	0.0960
9.2593	1080.0000	2.2451	0.0893
9.2764	1078.0000	2.2160	0.0834
9.2937	1076.0000	2.1889	0.0781
9.3110	1074.0000	2.1637	0.0734
9.3284	1072.0000	2.1400	0.0691
9.3458	1070.0000	2.1178	0.0652
9.3633	1068.0000	2.0970	0.0617
9.3809	1066.0000	2.0773	0.0585
9.3985	1064.0000	2.0587	0.0556
9.4162	1062.0000	2.0412	0.0529
9.4340	1060.0000	2.0245	0.0505
9.4518	1058.0000	2.0087	0.0482
9.4697	1056.0000	1.9937	0.0461
9.4877	1054.0000	1.9794	0.0442
9.5057	1052.0000	1.9657	0.0424
9.5238	1050.0000	1.9527	0.0408
9.5420	1048.0000	1.9403	0.0392
9.5602	1046.0000	1.9283	0.0378
9.5785	1044.0000	1.9169	0.0365
9.5969	1042.0000	1.9060	0.0352
9.6154	1040.0000	1.8955	0.0341
9.6339	1038.0000	1.8854	0.0330
9.6525	1036.0000	1.8756	0.0320
9.6712	1034.0000	1.8663	0.0310
9.6899	1032.0000	1.8573	0.0301
9.7087	1030.0000	1.8485	0.0293
9.7276	1028.0000	1.8401	0.0285
9.7466	1026.0000	1.8320	0.0278
9.7656	1024.0000	1.8242	0.0271
9.7847	1022.0000	1.8166	0.0264
9.8039	1020.0000	1.8092	0.0258
9.8232	1018.0000	1.8021	0.0252
9.8425	1016.0000	1.7952	0.0247
9.8619	1014.0000	1.7885	0.0242
9.8814	1012.0000	1.7819	0.0237
9.9010	1010.0000	1.7756	0.0232
9.9206	1008.0000	1.7695	0.0228
9.9404	1006.0000	1.7635	0.0223
9.9602	1004.0000	1.7577	0.0220
9.9800	1002.0000	1.7520	0.0216
10.0000	1000.0000	1.7464	0.0212
10.0200	998.0000	1.7411	0.0209
10.0402	996.0000	1.7358	0.0206
10.0604	994.0000	1.7307	0.0203
10.0806	992.0000	1.7257	0.0200
10.1010	990.0000	1.7208	0.0197
10.1215	988.0000	1.7160	0.0195
10.1420	986.0000	1.7113	0.0193
10.1626	984.0000	1.7067	0.0190
10.1833	982.0000	1.7023	0.0188
10.2041	980.0000	1.6979	0.0186
10.2249	978.0000	1.6936	0.0184
10.2459	976.0000	1.6894	0.0183
10.2669	974.0000	1.6852	0.0181
10.2881	972.0000	1.6812	0.0179
10.3093	970.0000	1.6772	0.0178
10.3306	968.0000	1.6733	0.0177
10.3520	966.0000	1.6695	0.0175
10.3734	964.0000	1.6657	0.0174
10.3950	962.0000	1.6620	0.0173
10.4167	960.0000	1.6584	0.0172
10.4384	958.0000	1.6548	0.0171
10.4603	956.0000	1.6513	0.0170
10.4822	954.0000	1.6479	0.0170
10.5042	952.0000	1.6444	0.0169
10.5263	950.0000	1.6411	0.0168
10.5485	948.0000	1.6378	0.0168
10.5708	946.0000	1.6345	0.0167
10.5932	944.0000	1.6313	0.0167
10.6157	942.0000	1.6281	0.0166
10.6383	940.0000	1.6250	0.0166
10.6610	938.0000	1.6219	0.0166
10.6838	936.0000	1.6189	0.0165
10.7066	934.0000	1.6159	0.0165
10.7296	932.0000	1.6129	0.0165
10.7527	930.0000	1.6100	0.0165
10.7759	928.0000	1.6071	0.0165
10.7991	926.0000	1.6042	0.0165
10.8225	924.0000	1.6013	0.0165
10.8460	922.0000	1.5985	0.0166
10.8696	920.0000	1.5957	0.0166
10.8932	918.0000	1.5930	0.0166
10.9170	916.0000	1.5903	0.0166
10.9409	914.0000	1.5876	0.0167
10.9649	912.0000	1.5849	0.0167
10.9890	910.0000	1.5822	0.0168
11.0132	908.0000	1.5796	0.0168
11.0375	906.0000	1.5770	0.0169
11.0619	904.0000	1.5744	0.0169
11.0865	902.0000	1.5718	0.0170
11.1111	900.0000	1.5692	0.0171
11.1359	898.0000	1.5667	0.0171
11.1607	896.0000	1.5642	0.0172
11.1857	894.0000	1.5617	0.0173
11.2108	892.0000	1.5592	0.0174
11.2360	890.0000	1.5567	0.0175
11.2613	888.0000	1.5542	0.0176
11.2867	886.0000	1.5518	0.0177
11.3122	884.0000	1.5493	0.0178
11.3379	882.0000	1.5469	0.0179
11.3636	880.0000	1.5445	0.0180
11.3895	878.0000	1.5421	0.0182
11.4155	876.0000	1.5397	0.0183
11.4416	874.0000	1.5373	0.0184
11.4679	872.0000	1.5349	0.0186
11.4943	870.0000	1.5325	0.0187
11.5207	868.0000	1.5301	0.0188
11.5473	866.0000	1.5278	0.0190
11.5741	864.0000	1.5254	0.0192
11.6009	862.0000	1.5230	0.0193
11.6279	860.0000	1.5207	0.0195
11.6550	858.0000	1.5183	0.0197
11.6822	856.0000	1.5160	0.0198
11.7096	854.0000	1.5136	0.0200
11.7371	852.0000	1.5112	0.0202
11.7647	850.0000	1.5089	0.0204
11.7925	848.0000	1.5065	0.0206
11.8203	846.0000	1.5042	0.0208
11.8483	844.0000	1.5018	0.0211
11.8765	842.0000	1.4995	0.0213
11.9048	840.0000	1.4971	0.0215
11.9332	838.0000	1.4947	0.0217
11.9617	836.0000	1.4924	0.0220
11.9904	834.0000	1.4900	0.0222
12.0192	832.0000	1.4876	0.0225
12.0482	830.0000	1.4852	0.0228
12.0773	828.0000	1.4828	0.0230
12.1065	826.0000	1.4804	0.0233
12.1359	824.0000	1.4780	0.0236
12.1655	822.0000	1.4756	0.0239
12.1951	820.0000	1.4731	0.0242
12.2249	818.0000	1.4707	0.0245
12.2549	816.0000	1.4682	0.0249
12.2850	814.0000	1.4657	0.0252
12.3153	812.0000	1.4632	0.0255
12.3457	810.0000	1.4607	0.0259
12.3762	808.0000	1.4582	0.0263
12.4069	806.0000	1.4557	0.0266
12.4378	804.0000	1.4531	0.0270
12.4688	802.0000	1.4506	0.0274
12.5000	800.0000	1.4480	0.0278
12.5313	798.0000	1.4454	0.0283
12.5628	796.0000	1.4428	0.0287
12.5945	794.0000	1.4401	0.0291
12.6263	792.0000	1.4374	0.0296
12.6582	790.0000	1.4347	0.0301
12.6904	788.0000	1.4320	0.0306
12.7226	786.0000	1.4293	0.0311
12.7551	784.0000	1.4265	0.0316
12.7877	782.0000	1.4237	0.0321
12.8205	780.0000	1.4209	0.0327
12.8535	778.0000	1.4180	0.0332
12.8866	776.0000	1.4152	0.0338
12.9199	774.0000	1.4122	0.0344
12.9534	772.0000	1.4093	0.0350
12.9870	770.0000	1.4063	0.0357
13.0208	768.0000	1.4033	0.0364
13.0548	766.0000	1.4002	0.0370
13.0890	764.0000	1.3971	0.0377
13.1234	762.0000	1.3940	0.0385
13.1579	760.0000	1.3908	0.0392
13.1926	758.0000	1.3875	0.0400
13.2275	756.0000	1.3843	0.0408
13.2626	754.0000	1.3810	0.0417
13.2979	752.0000	1.3776	0.0425
13.3333	750.0000	1.3742	0.0434
13.3690	748.0000	1.3707	0.0444
13.4048	746.0000	1.3671	0.0453
13.4409	744.0000	1.3636	0.0463
13.4771	742.0000	1.3599	0.0474
13.5135	740.0000	1.3562	0.0484
13.5501	738.0000	1.3524	0.0496
13.5870	736.0000	1.3486	0.0507
13.6240	734.0000	1.3446	0.0519
13.6612	732.0000	1.3407	0.0532
13.6986	730.0000	1.3366	0.0545
13.7363	728.0000	1.3324	0.0558
13.7741	726.0000	1.3282	0.0573
13.8122	724.0000	1.3239	0.0587
13.8504	722.0000	1.3195	0.0603
13.8889	720.0000	1.3150	0.0619
13.9276	718.0000	1.3104	0.0635
13.9665	716.0000	1.3057	0.0653
14.0056	714.0000	1.3009	0.0671
14.0449	712.0000	1.2960	0.0690
14.0845	710.0000	1.2909	0.0710
14.1243	708.0000	1.2858	0.0731
14.1643	706.0000	1.2805	0.0753
14.2045	704.0000	1.2751	0.0776
14.2450	702.0000	1.2695	0.0801
14.2857	700.0000	1.2638	0.0826
14.3266	698.0000	1.2580	0.0853
14.3678	696.0000	1.2520	0.0881
14.4092	694.0000	1.2458	0.0911
14.4509	692.0000	1.2395	0.0943
14.4928	690.0000	1.2329	0.0976
14.5349	688.0000	1.2262	0.1011
14.5773	686.0000	1.2193	0.1049
14.6199	684.0000	1.2122	0.1088
14.6628	682.0000	1.2048	0.1130
14.7059	680.0000	1.1973	0.1175
14.7493	678.0000	1.1894	0.1223
14.7929	676.0000	1.1814	0.1274
14.8368	674.0000	1.1731	0.1328
14.8810	672.0000	1.1645	0.1387
14.9254	670.0000	1.1556	0.1449
14.9701	668.0000	1.1464	0.1516
15.0150	666.0000	1.1369	0.1588
15.0602	664.0000	1.1271	0.1666
15.1057	662.0000	1.1170	0.1750
15.1515	660.0000	1.1066	0.1841
15.1976	658.0000	1.0959	0.1940
15.2439	656.0000	1.0848	0.2047
15.2905	654.0000	1.0734	0.2164
15.3374	652.0000	1.0618	0.2291
15.3846	650.0000	1.0498	0.2431
15.4321	648.0000	1.0377	0.2583
15.4799	646.0000	1.0255	0.2750
15.5280	644.0000	1.0132	0.2934
15.5763	642.0000	1.0010	0.3136
15.6250	640.0000	0.9890	0.3357
15.6740	638.0000	0.9775	0.3601
15.7233	636.0000	0.9667	0.3868
15.7729	634.0000	0.9570	0.4161
15.8228	632.0000	0.9487	0.4480
15.8730	630.0000	0.9424	0.4826
15.9236	628.0000	0.9384	0.5200
15.9744	626.0000	0.9374	0.5600
16.0256	624.0000	0.9400	0.6025
16.0772	622.0000	0.9468	0.6473
16.1290	620.0000	0.9583	0.6939
16.1812	618.0000	0.9753	0.7417
16.2338	616.0000	0.9982	0.7903
16.2866	614.0000	1.0278	0.8386
16.3399	612.0000	1.0643	0.8858
16.3934	610.0000	1.1084	0.9305
16.4474	608.0000	1.1601	0.9713
16.5017	606.0000	1.2194	1.0064
16.5563	604.0000	1.2855	1.0338
16.6113	602.0000	1.3573	1.0516
16.6667	600.0000	1.4326	1.0578
16.7224	598.0000	1.5087	1.0513
16.7785	596.0000	1.5822	1.0319
16.8350	594.0000	1.6498	1.0005
16.8919	592.0000	1.7086	0.9592
16.9492	590.0000	1.7568	0.9111
17.0068	588.0000	1.7936	0.8593
17.0648	586.0000	1.8194	0.8069
17.1233	584.0000	1.8356	0.7563
17.1821	582.0000	1.8437	0.7091
17.2414	580.0000	1.8456	0.6665
17.3010	578.0000	1.8428	0.6286
17.3611	576.0000	1.8369	0.5957
17.4216	574.0000	1.8290	0.5673
17.4825	572.0000	1.8200	0.5432
17.5439	570.0000	1.8107	0.5228
17.6056	568.0000	1.8014	0.5056
17.6678	566.0000	1.7927	0.4912
17.7305	564.0000	1.7847	0.4790
17.7936	562.0000	1.7776	0.4688
17.8571	560.0000	1.7715	0.4601
17.9211	558.0000	1.7664	0.4525
17.9856	556.0000	1.7624	0.4458
18.0505	554.0000	1.7593	0.4397
18.1159	552.0000	1.7571	0.4340
18.1818	550.0000	1.7558	0.4284
18.2482	548.0000	1.7551	0.4229
18.3150	546.0000	1.7550	0.4173
18.3824	544.0000	1.7554	0.4114
18.4502	542.0000	1.7561	0.4053
18.5185	540.0000	1.7570	0.3989
18.5874	538.0000	1.7580	0.3921
18.6567	536.0000	1.7590	0.3850
18.7266	534.0000	1.7598	0.3775
18.7970	532.0000	1.7605	0.3698
18.8679	530.0000	1.7609	0.3618
18.9394	528.0000	1.7609	0.3536
19.0114	526.0000	1.7606	0.3452
19.0840	524.0000	1.7599	0.3368
19.1571	522.0000	1.7588	0.3283
19.2308	520.0000	1.7572	0.3199
19.3050	518.0000	1.7552	0.3114
19.3798	516.0000	1.7528	0.3031
19.4553	514.0000	1.7500	0.2950
19.5313	512.0000	1.7467	0.2871
19.6078	510.0000	1.7431	0.2793
19.6850	508.0000	1.7391	0.2718
19.7628	506.0000	1.7348	0.2646
19.8413	504.0000	1.7302	0.2577
19.9203	502.0000	1.7253	0.2511
20.0000	500.0000	1.7201	0.2448
20.0803	498.0000	1.7148	0.2388
20.1613	496.0000	1.7091	0.2332
20.2429	494.0000	1.7034	0.2279
20.3252	492.0000	1.6974	0.2230
20.4082	490.0000	1.6913	0.2183
20.4918	488.0000	1.6850	0.2141
20.5761	486.0000	1.6787	0.2101
20.6612	484.0000	1.6722	0.2065
20.7469	482.0000	1.6656	0.2033
20.8333	480.0000	1.6590	0.2004
20.9205	478.0000	1.6523	0.1978
21.0084	476.0000	1.6456	0.1956
21.0970	474.0000	1.6388	0.1937
21.1864	472.0000	1.6321	0.1921
21.2766	470.0000	1.6253	0.1909
21.3675	468.0000	1.6185	0.1900
21.4592	466.0000	1.6117	0.1894
21.5517	464.0000	1.6050	0.1892
21.6450	462.0000	1.5983	0.1894
21.7391	460.0000	1.5917	0.1899
21.8341	458.0000	1.5852	0.1907
21.9298	456.0000	1.5788	0.1919
22.0264	454.0000	1.5726	0.1935
22.1239	452.0000	1.5664	0.1954
22.2222	450.0000	1.5605	0.1976
22.3214	448.0000	1.5549	0.2002
22.4215	446.0000	1.5494	0.2031
22.5225	444.0000	1.5443	0.2063
22.6244	442.0000	1.5395	0.2098
22.7273	440.0000	1.5351	0.2135
22.8311	438.0000	1.5311	0.2175
22.9358	436.0000	1.5275	0.2217
23.0415	434.0000	1.5245	0.2260
23.1481	432.0000	1.5219	0.2303
23.2558	430.0000	1.5199	0.2346
23.3645	428.0000	1.5185	0.2389
23.4742	426.0000	1.5175	0.2429
23.5849	424.0000	1.5171	0.2467
23.6967	422.0000	1.5172	0.2501
23.8095	420.0000	1.5177	0.2530
23.9234	418.0000	1.5186	0.2554
24.0385	416.0000	1.5197	0.2572
24.1546	414.0000	1.5209	0.2583
24.2718	412.0000	1.5222	0.2587
24.3902	410.0000	1.5234	0.2584
24.5098	408.0000	1.5243	0.2573
24.6305	406.0000	1.5249	0.2557
24.7525	404.0000	1.5251	0.2534
24.8756	402.0000	1.5247	0.2506
25.0000	400.0000	1.5237	0.2474
25.1256	398.0000	1.5220	0.2438
25.2525	396.0000	1.5195	0.2399
25.3807	394.0000	1.5163	0.2359
25.5102	392.0000	1.5123	0.2318
25.6410	390.0000	1.5076	0.2277
25.7732	388.0000	1.5020	0.2238
25.9067	386.0000	1.4957	0.2200
26.0417	384.0000	1.4887	0.2164
26.1780	382.0000	1.4810	0.2132
26.3158	380.0000	1.4725	0.2102
26.4550	378.0000	1.4634	0.2077
26.5957	376.0000	1.4537	0.2056
26.7380	374.0000	1.4433	0.2040
26.8817	372.0000	1.4323	0.2029
27.0270	370.0000	1.4206	0.2023
27.1739	368.0000	1.4083	0.2023
27.3224	366.0000	1.3954	0.2029
27.4725	364.0000	1.3819	0.2042
27.6243	362.0000	1.3677	0.2062
27.7778	360.0000	1.3528	0.2090
27.9330	358.0000	1.3372	0.2127
28.0899	356.0000	1.3210	0.2173
28.2486	354.0000	1.3039	0.2229
28.4091	352.0000	1.2861	0.2298
28.5714	350.0000	1.2676	0.2380
28.7356	348.0000	1.2482	0.2477
28.9017	346.0000	1.2280	0.2592
29.0698	344.0000	1.2070	0.2727
29.2398	342.0000	1.1853	0.2885
29.4118	340.0000	1.1630	0.3071
29.5858	338.0000	1.1403	0.3288
29.7619	336.0000	1.1174	0.3541
29.9401	334.0000	1.0948	0.3836
30.1205	332.0000	1.0731	0.4178
30.3030	330.0000	1.0533	0.4572
30.4878	328.0000	1.0365	0.5023
30.6748	326.0000	1.0242	0.5531
30.8642	324.0000	1.0179	0.6093
31.0559	322.0000	1.0195	0.6704
31.2500	320.0000	1.0306	0.7350
31.4465	318.0000	1.0529	0.8015
31.6456	316.0000	1.0877	0.8675
31.8471	314.0000	1.1358	0.9302
32.0513	312.0000	1.1978	0.9862
32.2581	310.0000	1.2730	1.0314
32.4675	308.0000	1.3594	1.0613
32.6797	306.0000	1.4530	1.0719
32.8947	304.0000	1.5478	1.0602
33.1126	302.0000	1.6366	1.0262
33.3333	300.0000	1.7123	0.9727
33.5570	298.0000	1.7698	0.9056
33.7838	296.0000	1.8073	0.8317
34.0136	294.0000	1.8256	0.7573
34.2466	292.0000	1.8276	0.6870
34.4828	290.0000	1.8167	0.6237
34.7222	288.0000	1.7963	0.5685
34.9650	286.0000	1.7693	0.5214
35.2113	284.0000	1.7377	0.4821
35.4610	282.0000	1.7029	0.4498
35.7143	280.0000	1.6661	0.4238
35.9712	278.0000	1.6279	0.4034
36.2319	276.0000	1.5886	0.3880
36.4964	274.0000	1.5484	0.3771
36.7647	272.0000	1.5074	0.3705
37.0370	270.0000	1.4657	0.3678
37.3134	268.0000	1.4230	0.3690
37.5940	266.0000	1.3794	0.3741
37.8788	264.0000	1.3347	0.3834
38.1679	262.0000	1.2889	0.3971
38.4615	260.0000	1.2420	0.4156
38.7597	258.0000	1.1940	0.4397
39.0625	256.0000	1.1452	0.4701
39.3701	254.0000	1.0962	0.5076
39.6825	252.0000	1.0479	0.5533
40.0000	250.0000	1.0018	0.6080
40.3226	248.0000	0.9598	0.6721
40.6504	246.0000	0.9238	0.7455
40.9836	244.0000	0.8962	0.8273
41.3223	242.0000	0.8785	0.9161
41.6667	240.0000	0.8721	1.0102
42.0168	238.0000	0.8778	1.1080
42.3729	236.0000	0.8963	1.2080
42.7350	234.0000	0.9285	1.3085
43.1034	232.0000	0.9753	1.4077
43.4783	230.0000	1.0379	1.5032
43.8596	228.0000	1.1174	1.5916
44.2478	226.0000	1.2141	1.6678
44.6429	224.0000	1.3267	1.7257
45.0450	222.0000	1.4504	1.7579
45.4545	220.0000	1.5766	1.7584
45.8716	218.0000	1.6920	1.7251
46.2963	216.0000	1.7819	1.6626
46.7290	214.0000	1.8348	1.5830
47.1698	212.0000	1.8450	1.5026
47.6190	210.0000	1.8142	1.4384
48.0769	208.0000	1.7485	1.4055
48.5437	206.0000	1.6576	1.4176
49.0196	204.0000	1.5551	1.4888
49.5050	202.0000	1.4622	1.6331
50.0000	200.0000	1.4115	1.8604
50.5051	198.0000	1.4496	2.1721
51.0204	196.0000	1.6494	2.5520
51.5464	194.0000	2.1322	2.9113
52.0833	192.0000	2.9470	2.9204
52.6316	190.0000	3.5594	2.2860
53.1915	188.0000	3.5523	1.5989
53.7634	186.0000	3.3047	1.2192
54.3478	184.0000	3.0551	1.0537
54.9451	182.0000	2.8534	1.0051
55.5556	180.0000	2.7039	1.0237
56.1798	178.0000	2.6052	1.0836
56.8182	176.0000	2.5571	1.1670
57.4713	174.0000	2.5591	1.2583
58.1395	172.0000	2.6085	1.3417
58.8235	170.0000	2.6984	1.4020
59.5238	168.0000	2.8167	1.4267
60.2410	166.0000	2.9468	1.4085
60.9756	164.0000	3.0707	1.3480
61.7284	162.0000	3.1734	1.2535
62.5000	160.0000	3.2462	1.1384
63.2911	158.0000	3.2878	1.0161
64.1026	156.0000	3.3023	0.8972
64.9351	154.0000	3.2958	0.7880
65.7895	152.0000	3.2748	0.6913
66.6667	150.0000	3.2446	0.6074
67.5676	148.0000	3.2090	0.5355
68.4932	146.0000	3.1708	0.4742
69.4444	144.0000	3.1318	0.4221
70.4225	142.0000	3.0933	0.3775
71.4286	140.0000	3.0558	0.3394
72.4638	138.0000	3.0199	0.3066
73.5294	136.0000	2.9856	0.2782
74.6269	134.0000	2.9532	0.2536
75.7576	132.0000	2.9225	0.2321
76.9231	130.0000	2.8935	0.2131
78.1250	128.0000	2.8662	0.1965
79.3651	126.0000	2.8404	0.1816
80.6452	124.0000	2.8162	0.1685
81.9672	122.0000	2.7933	0.1566
83.3333	120.0000	2.7717	0.1460
84.7458	118.0000	2.7513	0.1364
86.2069	116.0000	2.7320	0.1278
87.7193	114.0000	2.7138	0.1199
89.2857	112.0000	2.6965	0.1127
90.9091	110.0000	2.6801	0.1061
92.5926	108.0000	2.6646	0.1000
94.3396	106.0000	2.6499	0.0945
96.1538	104.0000	2.6359	0.0893
98.0392	102.0000	2.6226	0.0845
100.0000	100.0000	2.6100	0.0801
102.0408	98.0000	2.5979	0.0760
104.1667	96.0000	2.5865	0.0722
106.3830	94.0000	2.5756	0.0686
108.6957	92.0000	2.5652	0.0652
111.1111	90.0000	2.5552	0.0621
113.6364	88.0000	2.5458	0.0591
116.2791	86.0000	2.5367	0.0563
119.0476	84.0000	2.5281	0.0537
121.9512	82.0000	2.5198	0.0512
125.0000	80.0000	2.5119	0.0489
128.2051	78.0000	2.5044	0.0466
131.5789	76.0000	2.4972	0.0445
135.1351	74.0000	2.4904	0.0425
138.8889	72.0000	2.4838	0.0406
142.8571	70.0000	2.4775	0.0387
147.0588	68.0000	2.4715	0.0369
151.5152	66.0000	2.4658	0.0353
156.2500	64.0000	2.4603	0.0336
161.2903	62.0000	2.4551	0.0321
166.6667	60.0000	2.4501	0.0306
172.4138	58.0000	2.4454	0.0292
178.5714	56.0000	2.4408	0.0278
185.1852	54.0000	2.4365	0.0264
192.3077	52.0000	2.4324	0.0252
200.0000	50.0000	2.4285	0.0239
208.3333	48.0000	2.4248	0.0227
217.3913	46.0000	2.4213	0.0215
227.2727	44.0000	2.4179	0.0204
238.0952	42.0000	2.4148	0.0193
250.0000	40.0000	2.4118	0.0182
263.1579	38.0000	2.4090	0.0171
277.7778	36.0000	2.4063	0.0161
294.1176	34.0000	2.4038	0.0151
312.5000	32.0000	2.4015	0.0141
333.3333	30.0000	2.3993	0.0131