Optical constants of Gypsum, calculated from oscillator parameters
listed in Long et al. (1993) Infrared Physics, Vol. 34, No. 2,
191-201.  gypsum E||Z
Wave.          Freq.
(microns)    (cm-1)        n           k
2.5000	4000.0000	1.4233	1.8134e-3
2.5025	3996.0000	1.4230	1.8376e-3
2.5050	3992.0000	1.4227	1.8623e-3
2.5075	3988.0000	1.4224	1.8875e-3
2.5100	3984.0000	1.4221	1.9132e-3
2.5126	3980.0000	1.4218	1.9394e-3
2.5151	3976.0000	1.4215	1.9662e-3
2.5176	3972.0000	1.4212	1.9936e-3
2.5202	3968.0000	1.4209	2.0215e-3
2.5227	3964.0000	1.4206	2.0501e-3
2.5253	3960.0000	1.4203	2.0793e-3
2.5278	3956.0000	1.4200	2.1091e-3
2.5304	3952.0000	1.4197	2.1395e-3
2.5329	3948.0000	1.4193	2.1707e-3
2.5355	3944.0000	1.4190	2.2025e-3
2.5381	3940.0000	1.4187	2.2351e-3
2.5407	3936.0000	1.4183	2.2684e-3
2.5432	3932.0000	1.4180	2.3025e-3
2.5458	3928.0000	1.4176	2.3373e-3
2.5484	3924.0000	1.4173	2.3730e-3
2.5510	3920.0000	1.4169	2.4095e-3
2.5536	3916.0000	1.4165	2.4469e-3
2.5562	3912.0000	1.4161	2.4851e-3
2.5589	3908.0000	1.4158	2.5243e-3
2.5615	3904.0000	1.4154	2.5644e-3
2.5641	3900.0000	1.4150	2.6055e-3
2.5667	3896.0000	1.4146	2.6476e-3
2.5694	3892.0000	1.4142	2.6908e-3
2.5720	3888.0000	1.4138	2.7350e-3
2.5747	3884.0000	1.4134	2.7804e-3
2.5773	3880.0000	1.4129	2.8269e-3
2.5800	3876.0000	1.4125	2.8746e-3
2.5826	3872.0000	1.4121	2.9235e-3
2.5853	3868.0000	1.4116	2.9738e-3
2.5880	3864.0000	1.4112	3.0253e-3
2.5907	3860.0000	1.4107	3.0782e-3
2.5934	3856.0000	1.4103	3.1326e-3
2.5961	3852.0000	1.4098	3.1884e-3
2.5988	3848.0000	1.4093	3.2457e-3
2.6015	3844.0000	1.4088	3.3046e-3
2.6042	3840.0000	1.4083	3.3652e-3
2.6069	3836.0000	1.4078	3.4274e-3
2.6096	3832.0000	1.4073	3.4915e-3
2.6123	3828.0000	1.4067	3.5573e-3
2.6151	3824.0000	1.4062	3.6251e-3
2.6178	3820.0000	1.4057	3.6948e-3
2.6205	3816.0000	1.4051	3.7666e-3
2.6233	3812.0000	1.4045	3.8406e-3
2.6261	3808.0000	1.4040	3.9168e-3
2.6288	3804.0000	1.4034	3.9953e-3
2.6316	3800.0000	1.4028	4.0762e-3
2.6344	3796.0000	1.4022	4.1596e-3
2.6371	3792.0000	1.4015	4.2456e-3
2.6399	3788.0000	1.4009	4.3343e-3
2.6427	3784.0000	1.4003	4.4259e-3
2.6455	3780.0000	1.3996	4.5205e-3
2.6483	3776.0000	1.3989	4.6182e-3
2.6511	3772.0000	1.3982	4.7191e-3
2.6539	3768.0000	1.3975	4.8233e-3
2.6567	3764.0000	1.3968	4.9311e-3
2.6596	3760.0000	1.3961	5.0426e-3
2.6624	3756.0000	1.3953	5.1580e-3
2.6652	3752.0000	1.3945	5.2774e-3
2.6681	3748.0000	1.3937	5.4010e-3
2.6709	3744.0000	1.3929	5.5291e-3
2.6738	3740.0000	1.3921	5.6618e-3
2.6767	3736.0000	1.3913	5.7994e-3
2.6795	3732.0000	1.3904	5.9421e-3
2.6824	3728.0000	1.3895	6.0902e-3
2.6853	3724.0000	1.3886	6.2439e-3
2.6882	3720.0000	1.3877	6.4036e-3
2.6911	3716.0000	1.3868	6.5695e-3
2.6940	3712.0000	1.3858	6.7421e-3
2.6969	3708.0000	1.3848	6.9215e-3
2.6998	3704.0000	1.3838	7.1083e-3
2.7027	3700.0000	1.3827	7.3028e-3
2.7056	3696.0000	1.3816	7.5054e-3
2.7086	3692.0000	1.3805	7.7166e-3
2.7115	3688.0000	1.3794	7.9369e-3
2.7144	3684.0000	1.3782	8.1669e-3
2.7174	3680.0000	1.3770	8.4070e-3
2.7203	3676.0000	1.3758	8.6580e-3
2.7233	3672.0000	1.3745	8.9204e-3
2.7263	3668.0000	1.3732	9.1950e-3
2.7293	3664.0000	1.3718	9.4825e-3
2.7322	3660.0000	1.3705	9.7838e-3
2.7352	3656.0000	1.3690	0.0101
2.7382	3652.0000	1.3675	0.0104
2.7412	3648.0000	1.3660	0.0108
2.7442	3644.0000	1.3644	0.0111
2.7473	3640.0000	1.3628	0.0115
2.7503	3636.0000	1.3611	0.0119
2.7533	3632.0000	1.3594	0.0124
2.7563	3628.0000	1.3576	0.0128
2.7594	3624.0000	1.3558	0.0133
2.7624	3620.0000	1.3538	0.0138
2.7655	3616.0000	1.3518	0.0143
2.7685	3612.0000	1.3498	0.0149
2.7716	3608.0000	1.3476	0.0155
2.7747	3604.0000	1.3454	0.0161
2.7778	3600.0000	1.3431	0.0168
2.7809	3596.0000	1.3407	0.0175
2.7840	3592.0000	1.3381	0.0183
2.7871	3588.0000	1.3355	0.0191
2.7902	3584.0000	1.3328	0.0200
2.7933	3580.0000	1.3300	0.0209
2.7964	3576.0000	1.3270	0.0219
2.7996	3572.0000	1.3239	0.0229
2.8027	3568.0000	1.3207	0.0241
2.8058	3564.0000	1.3173	0.0253
2.8090	3560.0000	1.3137	0.0267
2.8121	3556.0000	1.3100	0.0281
2.8153	3552.0000	1.3061	0.0297
2.8185	3548.0000	1.3019	0.0314
2.8217	3544.0000	1.2976	0.0332
2.8249	3540.0000	1.2930	0.0352
2.8281	3536.0000	1.2882	0.0374
2.8313	3532.0000	1.2831	0.0398
2.8345	3528.0000	1.2777	0.0425
2.8377	3524.0000	1.2720	0.0454
2.8409	3520.0000	1.2660	0.0486
2.8441	3516.0000	1.2596	0.0521
2.8474	3512.0000	1.2528	0.0561
2.8506	3508.0000	1.2455	0.0605
2.8539	3504.0000	1.2378	0.0654
2.8571	3500.0000	1.2296	0.0710
2.8604	3496.0000	1.2209	0.0773
2.8637	3492.0000	1.2116	0.0844
2.8670	3488.0000	1.2016	0.0925
2.8703	3484.0000	1.1910	0.1017
2.8736	3480.0000	1.1798	0.1124
2.8769	3476.0000	1.1679	0.1247
2.8802	3472.0000	1.1553	0.1390
2.8835	3468.0000	1.1422	0.1557
2.8868	3464.0000	1.1287	0.1752
2.8902	3460.0000	1.1151	0.1982
2.8935	3456.0000	1.1018	0.2253
2.8969	3452.0000	1.0896	0.2572
2.9002	3448.0000	1.0794	0.2946
2.9036	3444.0000	1.0730	0.3381
2.9070	3440.0000	1.0721	0.3879
2.9104	3436.0000	1.0793	0.4437
2.9138	3432.0000	1.0973	0.5041
2.9172	3428.0000	1.1287	0.5666
2.9206	3424.0000	1.1756	0.6275
2.9240	3420.0000	1.2387	0.6822
2.9274	3416.0000	1.3172	0.7249
2.9308	3412.0000	1.4080	0.7499
2.9343	3408.0000	1.5048	0.7525
2.9377	3404.0000	1.5996	0.7311
2.9412	3400.0000	1.6838	0.6881
2.9446	3396.0000	1.7511	0.6296
2.9481	3392.0000	1.7990	0.5631
2.9516	3388.0000	1.8286	0.4957
2.9551	3384.0000	1.8432	0.4321
2.9586	3380.0000	1.8466	0.3751
2.9621	3376.0000	1.8424	0.3254
2.9656	3372.0000	1.8333	0.2829
2.9691	3368.0000	1.8214	0.2469
2.9727	3364.0000	1.8080	0.2164
2.9762	3360.0000	1.7940	0.1906
2.9797	3356.0000	1.7800	0.1688
2.9833	3352.0000	1.7663	0.1502
2.9869	3348.0000	1.7531	0.1344
2.9904	3344.0000	1.7407	0.1208
2.9940	3340.0000	1.7288	0.1091
2.9976	3336.0000	1.7177	0.0989
3.0012	3332.0000	1.7073	0.0900
3.0048	3328.0000	1.6975	0.0823
3.0084	3324.0000	1.6883	0.0754
3.0120	3320.0000	1.6797	0.0694
3.0157	3316.0000	1.6716	0.0640
3.0193	3312.0000	1.6640	0.0593
3.0230	3308.0000	1.6569	0.0550
3.0266	3304.0000	1.6502	0.0512
3.0303	3300.0000	1.6438	0.0477
3.0340	3296.0000	1.6379	0.0446
3.0377	3292.0000	1.6323	0.0418
3.0414	3288.0000	1.6269	0.0392
3.0451	3284.0000	1.6219	0.0369
3.0488	3280.0000	1.6171	0.0347
3.0525	3276.0000	1.6126	0.0328
3.0562	3272.0000	1.6083	0.0310
3.0600	3268.0000	1.6043	0.0293
3.0637	3264.0000	1.6004	0.0278
3.0675	3260.0000	1.5967	0.0264
3.0713	3256.0000	1.5931	0.0251
3.0750	3252.0000	1.5898	0.0239
3.0788	3248.0000	1.5866	0.0227
3.0826	3244.0000	1.5835	0.0217
3.0864	3240.0000	1.5805	0.0207
3.0902	3236.0000	1.5777	0.0198
3.0941	3232.0000	1.5750	0.0189
3.0979	3228.0000	1.5724	0.0181
3.1017	3224.0000	1.5699	0.0174
3.1056	3220.0000	1.5675	0.0167
3.1095	3216.0000	1.5652	0.0160
3.1133	3212.0000	1.5629	0.0154
3.1172	3208.0000	1.5608	0.0148
3.1211	3204.0000	1.5587	0.0143
3.1250	3200.0000	1.5567	0.0137
3.1289	3196.0000	1.5548	0.0132
3.1328	3192.0000	1.5529	0.0128
3.1368	3188.0000	1.5511	0.0123
3.1407	3184.0000	1.5494	0.0119
3.1447	3180.0000	1.5477	0.0115
3.1486	3176.0000	1.5461	0.0111
3.1526	3172.0000	1.5445	0.0108
3.1566	3168.0000	1.5430	0.0104
3.1606	3164.0000	1.5415	0.0101
3.1646	3160.0000	1.5400	9.7909e-3
3.1686	3156.0000	1.5386	9.4939e-3
3.1726	3152.0000	1.5373	9.2105e-3
3.1766	3148.0000	1.5359	8.9399e-3
3.1807	3144.0000	1.5347	8.6812e-3
3.1847	3140.0000	1.5334	8.4338e-3
3.1888	3136.0000	1.5322	8.1971e-3
3.1928	3132.0000	1.5310	7.9704e-3
3.1969	3128.0000	1.5298	7.7533e-3
3.2010	3124.0000	1.5287	7.5451e-3
3.2051	3120.0000	1.5276	7.3454e-3
3.2092	3116.0000	1.5265	7.1537e-3
3.2134	3112.0000	1.5255	6.9697e-3
3.2175	3108.0000	1.5245	6.7929e-3
3.2216	3104.0000	1.5235	6.6229e-3
3.2258	3100.0000	1.5225	6.4595e-3
3.2300	3096.0000	1.5216	6.3022e-3
3.2342	3092.0000	1.5206	6.1508e-3
3.2383	3088.0000	1.5197	6.0049e-3
3.2425	3084.0000	1.5188	5.8644e-3
3.2468	3080.0000	1.5180	5.7290e-3
3.2510	3076.0000	1.5171	5.5984e-3
3.2552	3072.0000	1.5163	5.4724e-3
3.2595	3068.0000	1.5155	5.3507e-3
3.2637	3064.0000	1.5147	5.2333e-3
3.2680	3060.0000	1.5139	5.1199e-3
3.2723	3056.0000	1.5131	5.0103e-3
3.2765	3052.0000	1.5124	4.9043e-3
3.2808	3048.0000	1.5116	4.8019e-3
3.2852	3044.0000	1.5109	4.7028e-3
3.2895	3040.0000	1.5102	4.6069e-3
3.2938	3036.0000	1.5095	4.5141e-3
3.2982	3032.0000	1.5088	4.4242e-3
3.3025	3028.0000	1.5081	4.3371e-3
3.3069	3024.0000	1.5075	4.2527e-3
3.3113	3020.0000	1.5068	4.1710e-3
3.3156	3016.0000	1.5062	4.0917e-3
3.3201	3012.0000	1.5056	4.0148e-3
3.3245	3008.0000	1.5049	3.9403e-3
3.3289	3004.0000	1.5043	3.8679e-3
3.3333	3000.0000	1.5037	3.7977e-3
3.3378	2996.0000	1.5032	3.7295e-3
3.3422	2992.0000	1.5026	3.6632e-3
3.3467	2988.0000	1.5020	3.5989e-3
3.3512	2984.0000	1.5015	3.5364e-3
3.3557	2980.0000	1.5009	3.4756e-3
3.3602	2976.0000	1.5004	3.4166e-3
3.3647	2972.0000	1.4998	3.3592e-3
3.3693	2968.0000	1.4993	3.3033e-3
3.3738	2964.0000	1.4988	3.2490e-3
3.3784	2960.0000	1.4983	3.1961e-3
3.3829	2956.0000	1.4978	3.1447e-3
3.3875	2952.0000	1.4973	3.0946e-3
3.3921	2948.0000	1.4968	3.0458e-3
3.3967	2944.0000	1.4963	2.9983e-3
3.4014	2940.0000	1.4958	2.9521e-3
3.4060	2936.0000	1.4954	2.9070e-3
3.4106	2932.0000	1.4949	2.8631e-3
3.4153	2928.0000	1.4944	2.8203e-3
3.4200	2924.0000	1.4940	2.7786e-3
3.4247	2920.0000	1.4936	2.7379e-3
3.4294	2916.0000	1.4931	2.6982e-3
3.4341	2912.0000	1.4927	2.6595e-3
3.4388	2908.0000	1.4922	2.6218e-3
3.4435	2904.0000	1.4918	2.5850e-3
3.4483	2900.0000	1.4914	2.5490e-3
3.4530	2896.0000	1.4910	2.5140e-3
3.4578	2892.0000	1.4906	2.4797e-3
3.4626	2888.0000	1.4902	2.4463e-3
3.4674	2884.0000	1.4898	2.4137e-3
3.4722	2880.0000	1.4894	2.3818e-3
3.4771	2876.0000	1.4890	2.3507e-3
3.4819	2872.0000	1.4886	2.3203e-3
3.4868	2868.0000	1.4882	2.2906e-3
3.4916	2864.0000	1.4878	2.2616e-3
3.4965	2860.0000	1.4874	2.2332e-3
3.5014	2856.0000	1.4871	2.2055e-3
3.5063	2852.0000	1.4867	2.1784e-3
3.5112	2848.0000	1.4863	2.1519e-3
3.5162	2844.0000	1.4860	2.1260e-3
3.5211	2840.0000	1.4856	2.1007e-3
3.5261	2836.0000	1.4853	2.0759e-3
3.5311	2832.0000	1.4849	2.0517e-3
3.5361	2828.0000	1.4846	2.0280e-3
3.5411	2824.0000	1.4842	2.0048e-3
3.5461	2820.0000	1.4839	1.9821e-3
3.5511	2816.0000	1.4835	1.9599e-3
3.5562	2812.0000	1.4832	1.9382e-3
3.5613	2808.0000	1.4829	1.9169e-3
3.5663	2804.0000	1.4825	1.8961e-3
3.5714	2800.0000	1.4822	1.8757e-3
3.5765	2796.0000	1.4819	1.8558e-3
3.5817	2792.0000	1.4815	1.8363e-3
3.5868	2788.0000	1.4812	1.8172e-3
3.5920	2784.0000	1.4809	1.7984e-3
3.5971	2780.0000	1.4806	1.7801e-3
3.6023	2776.0000	1.4803	1.7622e-3
3.6075	2772.0000	1.4800	1.7446e-3
3.6127	2768.0000	1.4796	1.7274e-3
3.6179	2764.0000	1.4793	1.7105e-3
3.6232	2760.0000	1.4790	1.6940e-3
3.6284	2756.0000	1.4787	1.6778e-3
3.6337	2752.0000	1.4784	1.6619e-3
3.6390	2748.0000	1.4781	1.6464e-3
3.6443	2744.0000	1.4778	1.6311e-3
3.6496	2740.0000	1.4775	1.6162e-3
3.6550	2736.0000	1.4772	1.6016e-3
3.6603	2732.0000	1.4769	1.5873e-3
3.6657	2728.0000	1.4766	1.5732e-3
3.6711	2724.0000	1.4764	1.5595e-3
3.6765	2720.0000	1.4761	1.5460e-3
3.6819	2716.0000	1.4758	1.5327e-3
3.6873	2712.0000	1.4755	1.5198e-3
3.6928	2708.0000	1.4752	1.5071e-3
3.6982	2704.0000	1.4749	1.4946e-3
3.7037	2700.0000	1.4746	1.4824e-3
3.7092	2696.0000	1.4744	1.4704e-3
3.7147	2692.0000	1.4741	1.4587e-3
3.7202	2688.0000	1.4738	1.4472e-3
3.7258	2684.0000	1.4735	1.4359e-3
3.7313	2680.0000	1.4733	1.4249e-3
3.7369	2676.0000	1.4730	1.4140e-3
3.7425	2672.0000	1.4727	1.4034e-3
3.7481	2668.0000	1.4724	1.3930e-3
3.7538	2664.0000	1.4722	1.3828e-3
3.7594	2660.0000	1.4719	1.3728e-3
3.7651	2656.0000	1.4716	1.3629e-3
3.7707	2652.0000	1.4714	1.3533e-3
3.7764	2648.0000	1.4711	1.3439e-3
3.7821	2644.0000	1.4708	1.3346e-3
3.7879	2640.0000	1.4706	1.3256e-3
3.7936	2636.0000	1.4703	1.3167e-3
3.7994	2632.0000	1.4700	1.3080e-3
3.8052	2628.0000	1.4698	1.2995e-3
3.8110	2624.0000	1.4695	1.2911e-3
3.8168	2620.0000	1.4692	1.2829e-3
3.8226	2616.0000	1.4690	1.2749e-3
3.8285	2612.0000	1.4687	1.2670e-3
3.8344	2608.0000	1.4685	1.2593e-3
3.8402	2604.0000	1.4682	1.2517e-3
3.8462	2600.0000	1.4680	1.2443e-3
3.8521	2596.0000	1.4677	1.2370e-3
3.8580	2592.0000	1.4674	1.2299e-3
3.8640	2588.0000	1.4672	1.2230e-3
3.8700	2584.0000	1.4669	1.2161e-3
3.8760	2580.0000	1.4667	1.2095e-3
3.8820	2576.0000	1.4664	1.2029e-3
3.8880	2572.0000	1.4662	1.1965e-3
3.8941	2568.0000	1.4659	1.1902e-3
3.9002	2564.0000	1.4657	1.1841e-3
3.9063	2560.0000	1.4654	1.1781e-3
3.9124	2556.0000	1.4651	1.1722e-3
3.9185	2552.0000	1.4649	1.1665e-3
3.9246	2548.0000	1.4646	1.1608e-3
3.9308	2544.0000	1.4644	1.1553e-3
3.9370	2540.0000	1.4641	1.1499e-3
3.9432	2536.0000	1.4639	1.1447e-3
3.9494	2532.0000	1.4636	1.1395e-3
3.9557	2528.0000	1.4634	1.1345e-3
3.9620	2524.0000	1.4631	1.1296e-3
3.9683	2520.0000	1.4629	1.1248e-3
3.9746	2516.0000	1.4626	1.1201e-3
3.9809	2512.0000	1.4624	1.1155e-3
3.9872	2508.0000	1.4621	1.1110e-3
3.9936	2504.0000	1.4619	1.1067e-3
4.0000	2500.0000	1.4616	1.1024e-3
4.0064	2496.0000	1.4614	1.0983e-3
4.0128	2492.0000	1.4611	1.0942e-3
4.0193	2488.0000	1.4609	1.0903e-3
4.0258	2484.0000	1.4606	1.0864e-3
4.0323	2480.0000	1.4604	1.0827e-3
4.0388	2476.0000	1.4601	1.0790e-3
4.0453	2472.0000	1.4599	1.0755e-3
4.0519	2468.0000	1.4596	1.0720e-3
4.0584	2464.0000	1.4594	1.0687e-3
4.0650	2460.0000	1.4591	1.0654e-3
4.0717	2456.0000	1.4589	1.0622e-3
4.0783	2452.0000	1.4586	1.0592e-3
4.0850	2448.0000	1.4583	1.0562e-3
4.0917	2444.0000	1.4581	1.0533e-3
4.0984	2440.0000	1.4578	1.0505e-3
4.1051	2436.0000	1.4576	1.0478e-3
4.1118	2432.0000	1.4573	1.0452e-3
4.1186	2428.0000	1.4571	1.0427e-3
4.1254	2424.0000	1.4568	1.0402e-3
4.1322	2420.0000	1.4566	1.0379e-3
4.1391	2416.0000	1.4563	1.0356e-3
4.1459	2412.0000	1.4560	1.0334e-3
4.1528	2408.0000	1.4558	1.0313e-3
4.1597	2404.0000	1.4555	1.0293e-3
4.1667	2400.0000	1.4553	1.0274e-3
4.1736	2396.0000	1.4550	1.0255e-3
4.1806	2392.0000	1.4548	1.0238e-3
4.1876	2388.0000	1.4545	1.0221e-3
4.1946	2384.0000	1.4542	1.0205e-3
4.2017	2380.0000	1.4540	1.0190e-3
4.2088	2376.0000	1.4537	1.0176e-3
4.2159	2372.0000	1.4534	1.0162e-3
4.2230	2368.0000	1.4532	1.0149e-3
4.2301	2364.0000	1.4529	1.0138e-3
4.2373	2360.0000	1.4527	1.0126e-3
4.2445	2356.0000	1.4524	1.0116e-3
4.2517	2352.0000	1.4521	1.0107e-3
4.2589	2348.0000	1.4519	1.0098e-3
4.2662	2344.0000	1.4516	1.0090e-3
4.2735	2340.0000	1.4513	1.0083e-3
4.2808	2336.0000	1.4510	1.0076e-3
4.2882	2332.0000	1.4508	1.0071e-3
4.2955	2328.0000	1.4505	1.0066e-3
4.3029	2324.0000	1.4502	1.0062e-3
4.3103	2320.0000	1.4500	1.0059e-3
4.3178	2316.0000	1.4497	1.0056e-3
4.3253	2312.0000	1.4494	1.0055e-3
4.3328	2308.0000	1.4491	1.0054e-3
4.3403	2304.0000	1.4488	1.0054e-3
4.3478	2300.0000	1.4486	1.0054e-3
4.3554	2296.0000	1.4483	1.0056e-3
4.3630	2292.0000	1.4480	1.0058e-3
4.3706	2288.0000	1.4477	1.0061e-3
4.3783	2284.0000	1.4474	1.0065e-3
4.3860	2280.0000	1.4472	1.0069e-3
4.3937	2276.0000	1.4469	1.0075e-3
4.4014	2272.0000	1.4466	1.0081e-3
4.4092	2268.0000	1.4463	1.0088e-3
4.4170	2264.0000	1.4460	1.0096e-3
4.4248	2260.0000	1.4457	1.0104e-3
4.4326	2256.0000	1.4454	1.0114e-3
4.4405	2252.0000	1.4451	1.0124e-3
4.4484	2248.0000	1.4448	1.0135e-3
4.4563	2244.0000	1.4445	1.0146e-3
4.4643	2240.0000	1.4442	1.0159e-3
4.4723	2236.0000	1.4439	1.0172e-3
4.4803	2232.0000	1.4436	1.0187e-3
4.4883	2228.0000	1.4433	1.0202e-3
4.4964	2224.0000	1.4430	1.0217e-3
4.5045	2220.0000	1.4427	1.0234e-3
4.5126	2216.0000	1.4424	1.0252e-3
4.5208	2212.0000	1.4421	1.0270e-3
4.5290	2208.0000	1.4418	1.0289e-3
4.5372	2204.0000	1.4414	1.0310e-3
4.5455	2200.0000	1.4411	1.0331e-3
4.5537	2196.0000	1.4408	1.0352e-3
4.5620	2192.0000	1.4405	1.0375e-3
4.5704	2188.0000	1.4402	1.0399e-3
4.5788	2184.0000	1.4398	1.0423e-3
4.5872	2180.0000	1.4395	1.0449e-3
4.5956	2176.0000	1.4392	1.0475e-3
4.6041	2172.0000	1.4388	1.0503e-3
4.6125	2168.0000	1.4385	1.0531e-3
4.6211	2164.0000	1.4382	1.0560e-3
4.6296	2160.0000	1.4378	1.0590e-3
4.6382	2156.0000	1.4375	1.0622e-3
4.6468	2152.0000	1.4372	1.0654e-3
4.6555	2148.0000	1.4368	1.0687e-3
4.6642	2144.0000	1.4365	1.0721e-3
4.6729	2140.0000	1.4361	1.0756e-3
4.6816	2136.0000	1.4358	1.0792e-3
4.6904	2132.0000	1.4354	1.0830e-3
4.6992	2128.0000	1.4350	1.0868e-3
4.7081	2124.0000	1.4347	1.0908e-3
4.7170	2120.0000	1.4343	1.0948e-3
4.7259	2116.0000	1.4340	1.0990e-3
4.7348	2112.0000	1.4336	1.1033e-3
4.7438	2108.0000	1.4332	1.1077e-3
4.7529	2104.0000	1.4328	1.1122e-3
4.7619	2100.0000	1.4325	1.1168e-3
4.7710	2096.0000	1.4321	1.1216e-3
4.7801	2092.0000	1.4317	1.1265e-3
4.7893	2088.0000	1.4313	1.1315e-3
4.7985	2084.0000	1.4309	1.1366e-3
4.8077	2080.0000	1.4305	1.1419e-3
4.8170	2076.0000	1.4301	1.1473e-3
4.8263	2072.0000	1.4297	1.1528e-3
4.8356	2068.0000	1.4293	1.1585e-3
4.8450	2064.0000	1.4289	1.1643e-3
4.8544	2060.0000	1.4285	1.1703e-3
4.8638	2056.0000	1.4281	1.1764e-3
4.8733	2052.0000	1.4276	1.1827e-3
4.8828	2048.0000	1.4272	1.1891e-3
4.8924	2044.0000	1.4268	1.1957e-3
4.9020	2040.0000	1.4264	1.2024e-3
4.9116	2036.0000	1.4259	1.2093e-3
4.9213	2032.0000	1.4255	1.2164e-3
4.9310	2028.0000	1.4250	1.2237e-3
4.9407	2024.0000	1.4246	1.2311e-3
4.9505	2020.0000	1.4241	1.2387e-3
4.9603	2016.0000	1.4237	1.2466e-3
4.9702	2012.0000	1.4232	1.2546e-3
4.9801	2008.0000	1.4227	1.2628e-3
4.9900	2004.0000	1.4223	1.2712e-3
5.0000	2000.0000	1.4218	1.2798e-3
5.0050	1998.0000	1.4215	1.2842e-3
5.0100	1996.0000	1.4213	1.2887e-3
5.0150	1994.0000	1.4210	1.2932e-3
5.0201	1992.0000	1.4208	1.2977e-3
5.0251	1990.0000	1.4205	1.3023e-3
5.0302	1988.0000	1.4203	1.3070e-3
5.0352	1986.0000	1.4200	1.3118e-3
5.0403	1984.0000	1.4198	1.3166e-3
5.0454	1982.0000	1.4195	1.3214e-3
5.0505	1980.0000	1.4193	1.3263e-3
5.0556	1978.0000	1.4190	1.3313e-3
5.0607	1976.0000	1.4188	1.3364e-3
5.0659	1974.0000	1.4185	1.3415e-3
5.0710	1972.0000	1.4182	1.3467e-3
5.0761	1970.0000	1.4180	1.3519e-3
5.0813	1968.0000	1.4177	1.3573e-3
5.0865	1966.0000	1.4175	1.3626e-3
5.0916	1964.0000	1.4172	1.3681e-3
5.0968	1962.0000	1.4169	1.3736e-3
5.1020	1960.0000	1.4166	1.3792e-3
5.1073	1958.0000	1.4164	1.3849e-3
5.1125	1956.0000	1.4161	1.3907e-3
5.1177	1954.0000	1.4158	1.3965e-3
5.1230	1952.0000	1.4155	1.4024e-3
5.1282	1950.0000	1.4153	1.4084e-3
5.1335	1948.0000	1.4150	1.4145e-3
5.1387	1946.0000	1.4147	1.4207e-3
5.1440	1944.0000	1.4144	1.4269e-3
5.1493	1942.0000	1.4141	1.4333e-3
5.1546	1940.0000	1.4138	1.4397e-3
5.1600	1938.0000	1.4135	1.4462e-3
5.1653	1936.0000	1.4132	1.4528e-3
5.1706	1934.0000	1.4129	1.4595e-3
5.1760	1932.0000	1.4126	1.4663e-3
5.1813	1930.0000	1.4123	1.4732e-3
5.1867	1928.0000	1.4120	1.4802e-3
5.1921	1926.0000	1.4117	1.4873e-3
5.1975	1924.0000	1.4114	1.4945e-3
5.2029	1922.0000	1.4111	1.5018e-3
5.2083	1920.0000	1.4108	1.5093e-3
5.2138	1918.0000	1.4105	1.5168e-3
5.2192	1916.0000	1.4102	1.5244e-3
5.2247	1914.0000	1.4099	1.5322e-3
5.2301	1912.0000	1.4095	1.5401e-3
5.2356	1910.0000	1.4092	1.5481e-3
5.2411	1908.0000	1.4089	1.5562e-3
5.2466	1906.0000	1.4086	1.5645e-3
5.2521	1904.0000	1.4082	1.5728e-3
5.2576	1902.0000	1.4079	1.5814e-3
5.2632	1900.0000	1.4075	1.5900e-3
5.2687	1898.0000	1.4072	1.5988e-3
5.2743	1896.0000	1.4069	1.6077e-3
5.2798	1894.0000	1.4065	1.6168e-3
5.2854	1892.0000	1.4062	1.6261e-3
5.2910	1890.0000	1.4058	1.6354e-3
5.2966	1888.0000	1.4055	1.6450e-3
5.3022	1886.0000	1.4051	1.6547e-3
5.3079	1884.0000	1.4047	1.6646e-3
5.3135	1882.0000	1.4044	1.6746e-3
5.3191	1880.0000	1.4040	1.6848e-3
5.3248	1878.0000	1.4036	1.6952e-3
5.3305	1876.0000	1.4033	1.7058e-3
5.3362	1874.0000	1.4029	1.7166e-3
5.3419	1872.0000	1.4025	1.7275e-3
5.3476	1870.0000	1.4021	1.7387e-3
5.3533	1868.0000	1.4017	1.7501e-3
5.3591	1866.0000	1.4013	1.7617e-3
5.3648	1864.0000	1.4009	1.7735e-3
5.3706	1862.0000	1.4005	1.7855e-3
5.3763	1860.0000	1.4001	1.7977e-3
5.3821	1858.0000	1.3997	1.8102e-3
5.3879	1856.0000	1.3993	1.8230e-3
5.3937	1854.0000	1.3989	1.8360e-3
5.3996	1852.0000	1.3985	1.8492e-3
5.4054	1850.0000	1.3981	1.8627e-3
5.4113	1848.0000	1.3976	1.8765e-3
5.4171	1846.0000	1.3972	1.8906e-3
5.4230	1844.0000	1.3968	1.9050e-3
5.4289	1842.0000	1.3963	1.9197e-3
5.4348	1840.0000	1.3959	1.9347e-3
5.4407	1838.0000	1.3954	1.9500e-3
5.4466	1836.0000	1.3950	1.9657e-3
5.4526	1834.0000	1.3945	1.9817e-3
5.4585	1832.0000	1.3940	1.9981e-3
5.4645	1830.0000	1.3935	2.0148e-3
5.4705	1828.0000	1.3931	2.0320e-3
5.4765	1826.0000	1.3926	2.0495e-3
5.4825	1824.0000	1.3921	2.0674e-3
5.4885	1822.0000	1.3916	2.0858e-3
5.4945	1820.0000	1.3911	2.1047e-3
5.5006	1818.0000	1.3906	2.1239e-3
5.5066	1816.0000	1.3901	2.1437e-3
5.5127	1814.0000	1.3895	2.1640e-3
5.5188	1812.0000	1.3890	2.1848e-3
5.5249	1810.0000	1.3885	2.2061e-3
5.5310	1808.0000	1.3879	2.2280e-3
5.5371	1806.0000	1.3874	2.2505e-3
5.5432	1804.0000	1.3868	2.2736e-3
5.5494	1802.0000	1.3862	2.2973e-3
5.5556	1800.0000	1.3856	2.3217e-3
5.5617	1798.0000	1.3851	2.3468e-3
5.5679	1796.0000	1.3845	2.3726e-3
5.5741	1794.0000	1.3839	2.3992e-3
5.5804	1792.0000	1.3832	2.4266e-3
5.5866	1790.0000	1.3826	2.4547e-3
5.5928	1788.0000	1.3820	2.4838e-3
5.5991	1786.0000	1.3813	2.5137e-3
5.6054	1784.0000	1.3807	2.5446e-3
5.6117	1782.0000	1.3800	2.5765e-3
5.6180	1780.0000	1.3793	2.6095e-3
5.6243	1778.0000	1.3787	2.6435e-3
5.6306	1776.0000	1.3780	2.6787e-3
5.6370	1774.0000	1.3772	2.7151e-3
5.6433	1772.0000	1.3765	2.7527e-3
5.6497	1770.0000	1.3758	2.7917e-3
5.6561	1768.0000	1.3750	2.8321e-3
5.6625	1766.0000	1.3742	2.8741e-3
5.6689	1764.0000	1.3735	2.9175e-3
5.6754	1762.0000	1.3727	2.9627e-3
5.6818	1760.0000	1.3718	3.0096e-3
5.6883	1758.0000	1.3710	3.0583e-3
5.6948	1756.0000	1.3702	3.1090e-3
5.7013	1754.0000	1.3693	3.1618e-3
5.7078	1752.0000	1.3684	3.2168e-3
5.7143	1750.0000	1.3675	3.2742e-3
5.7208	1748.0000	1.3666	3.3341e-3
5.7274	1746.0000	1.3656	3.3966e-3
5.7339	1744.0000	1.3646	3.4620e-3
5.7405	1742.0000	1.3636	3.5304e-3
5.7471	1740.0000	1.3626	3.6020e-3
5.7537	1738.0000	1.3615	3.6771e-3
5.7604	1736.0000	1.3605	3.7559e-3
5.7670	1734.0000	1.3593	3.8387e-3
5.7737	1732.0000	1.3582	3.9258e-3
5.7803	1730.0000	1.3570	4.0174e-3
5.7870	1728.0000	1.3558	4.1139e-3
5.7937	1726.0000	1.3546	4.2158e-3
5.8005	1724.0000	1.3533	4.3234e-3
5.8072	1722.0000	1.3520	4.4373e-3
5.8140	1720.0000	1.3506	4.5578e-3
5.8207	1718.0000	1.3492	4.6857e-3
5.8275	1716.0000	1.3477	4.8215e-3
5.8343	1714.0000	1.3462	4.9659e-3
5.8411	1712.0000	1.3446	5.1198e-3
5.8480	1710.0000	1.3430	5.2839e-3
5.8548	1708.0000	1.3413	5.4594e-3
5.8617	1706.0000	1.3395	5.6472e-3
5.8685	1704.0000	1.3377	5.8487e-3
5.8754	1702.0000	1.3358	6.0653e-3
5.8824	1700.0000	1.3338	6.2985e-3
5.8893	1698.0000	1.3317	6.5502e-3
5.8962	1696.0000	1.3295	6.8224e-3
5.9032	1694.0000	1.3273	7.1174e-3
5.9102	1692.0000	1.3249	7.4381e-3
5.9172	1690.0000	1.3223	7.7876e-3
5.9242	1688.0000	1.3197	8.1694e-3
5.9312	1686.0000	1.3169	8.5878e-3
5.9382	1684.0000	1.3139	9.0477e-3
5.9453	1682.0000	1.3107	9.5550e-3
5.9524	1680.0000	1.3074	0.0101
5.9595	1678.0000	1.3038	0.0107
5.9666	1676.0000	1.3000	0.0114
5.9737	1674.0000	1.2959	0.0122
5.9809	1672.0000	1.2915	0.0131
5.9880	1670.0000	1.2868	0.0141
5.9952	1668.0000	1.2817	0.0152
6.0024	1666.0000	1.2762	0.0165
6.0096	1664.0000	1.2701	0.0180
6.0168	1662.0000	1.2635	0.0197
6.0241	1660.0000	1.2562	0.0217
6.0314	1658.0000	1.2481	0.0241
6.0386	1656.0000	1.2392	0.0269
6.0459	1654.0000	1.2292	0.0303
6.0533	1652.0000	1.2179	0.0345
6.0606	1650.0000	1.2050	0.0396
6.0680	1648.0000	1.1904	0.0460
6.0753	1646.0000	1.1735	0.0542
6.0827	1644.0000	1.1538	0.0648
6.0901	1642.0000	1.1307	0.0790
6.0976	1640.0000	1.1035	0.0984
6.1050	1638.0000	1.0715	0.1258
6.1125	1636.0000	1.0342	0.1660
6.1200	1634.0000	0.9936	0.2264
6.1275	1632.0000	0.9571	0.3188
6.1350	1630.0000	0.9466	0.4539
6.1425	1628.0000	1.0003	0.6249
6.1501	1626.0000	1.1553	0.7887
6.1576	1624.0000	1.4110	0.8619
6.1652	1622.0000	1.6723	0.7710
6.1728	1620.0000	1.8119	0.5764
6.1805	1618.0000	1.8326	0.3991
6.1881	1616.0000	1.8017	0.2771
6.1958	1614.0000	1.7587	0.1987
6.2035	1612.0000	1.7176	0.1478
6.2112	1610.0000	1.6817	0.1137
6.2189	1608.0000	1.6513	0.0900
6.2267	1606.0000	1.6255	0.0730
6.2344	1604.0000	1.6037	0.0604
6.2422	1602.0000	1.5850	0.0509
6.2500	1600.0000	1.5689	0.0435
6.2578	1598.0000	1.5548	0.0377
6.2657	1596.0000	1.5425	0.0330
6.2735	1594.0000	1.5316	0.0292
6.2814	1592.0000	1.5218	0.0261
6.2893	1590.0000	1.5131	0.0235
6.2972	1588.0000	1.5052	0.0213
6.3052	1586.0000	1.4980	0.0194
6.3131	1584.0000	1.4915	0.0178
6.3211	1582.0000	1.4855	0.0164
6.3291	1580.0000	1.4799	0.0152
6.3371	1578.0000	1.4748	0.0142
6.3452	1576.0000	1.4701	0.0133
6.3532	1574.0000	1.4656	0.0125
6.3613	1572.0000	1.4615	0.0118
6.3694	1570.0000	1.4575	0.0111
6.3776	1568.0000	1.4539	0.0106
6.3857	1566.0000	1.4504	0.0101
6.3939	1564.0000	1.4471	9.6191e-3
6.4020	1562.0000	1.4440	9.2090e-3
6.4103	1560.0000	1.4410	8.8386e-3
6.4185	1558.0000	1.4381	8.5030e-3
6.4267	1556.0000	1.4354	8.1984e-3
6.4350	1554.0000	1.4328	7.9214e-3
6.4433	1552.0000	1.4303	7.6689e-3
6.4516	1550.0000	1.4279	7.4385e-3
6.4599	1548.0000	1.4256	7.2279e-3
6.4683	1546.0000	1.4234	7.0352e-3
6.4767	1544.0000	1.4212	6.8585e-3
6.4851	1542.0000	1.4191	6.6965e-3
6.4935	1540.0000	1.4171	6.5478e-3
6.5020	1538.0000	1.4151	6.4112e-3
6.5104	1536.0000	1.4132	6.2857e-3
6.5189	1534.0000	1.4113	6.1703e-3
6.5274	1532.0000	1.4095	6.0642e-3
6.5359	1530.0000	1.4077	5.9666e-3
6.5445	1528.0000	1.4059	5.8770e-3
6.5531	1526.0000	1.4042	5.7946e-3
6.5617	1524.0000	1.4025	5.7190e-3
6.5703	1522.0000	1.4009	5.6496e-3
6.5789	1520.0000	1.3993	5.5861e-3
6.5876	1518.0000	1.3977	5.5280e-3
6.5963	1516.0000	1.3961	5.4750e-3
6.6050	1514.0000	1.3946	5.4267e-3
6.6138	1512.0000	1.3931	5.3828e-3
6.6225	1510.0000	1.3916	5.3431e-3
6.6313	1508.0000	1.3901	5.3073e-3
6.6401	1506.0000	1.3886	5.2752e-3
6.6489	1504.0000	1.3872	5.2466e-3
6.6578	1502.0000	1.3857	5.2213e-3
6.6667	1500.0000	1.3843	5.1991e-3
6.6756	1498.0000	1.3829	5.1799e-3
6.6845	1496.0000	1.3815	5.1635e-3
6.6934	1494.0000	1.3801	5.1498e-3
6.7024	1492.0000	1.3788	5.1387e-3
6.7114	1490.0000	1.3774	5.1300e-3
6.7204	1488.0000	1.3760	5.1236e-3
6.7295	1486.0000	1.3747	5.1196e-3
6.7385	1484.0000	1.3733	5.1177e-3
6.7476	1482.0000	1.3720	5.1178e-3
6.7568	1480.0000	1.3706	5.1200e-3
6.7659	1478.0000	1.3693	5.1242e-3
6.7751	1476.0000	1.3680	5.1302e-3
6.7843	1474.0000	1.3666	5.1381e-3
6.7935	1472.0000	1.3653	5.1478e-3
6.8027	1470.0000	1.3640	5.1591e-3
6.8120	1468.0000	1.3627	5.1722e-3
6.8213	1466.0000	1.3613	5.1870e-3
6.8306	1464.0000	1.3600	5.2033e-3
6.8399	1462.0000	1.3587	5.2213e-3
6.8493	1460.0000	1.3573	5.2408e-3
6.8587	1458.0000	1.3560	5.2619e-3
6.8681	1456.0000	1.3547	5.2844e-3
6.8776	1454.0000	1.3533	5.3085e-3
6.8871	1452.0000	1.3520	5.3341e-3
6.8966	1450.0000	1.3506	5.3611e-3
6.9061	1448.0000	1.3493	5.3895e-3
6.9156	1446.0000	1.3479	5.4195e-3
6.9252	1444.0000	1.3466	5.4508e-3
6.9348	1442.0000	1.3452	5.4836e-3
6.9444	1440.0000	1.3438	5.5178e-3
6.9541	1438.0000	1.3424	5.5535e-3
6.9638	1436.0000	1.3411	5.5906e-3
6.9735	1434.0000	1.3397	5.6291e-3
6.9832	1432.0000	1.3383	5.6691e-3
6.9930	1430.0000	1.3368	5.7105e-3
7.0028	1428.0000	1.3354	5.7533e-3
7.0126	1426.0000	1.3340	5.7977e-3
7.0225	1424.0000	1.3325	5.8435e-3
7.0323	1422.0000	1.3311	5.8908e-3
7.0423	1420.0000	1.3296	5.9396e-3
7.0522	1418.0000	1.3281	5.9900e-3
7.0621	1416.0000	1.3266	6.0419e-3
7.0721	1414.0000	1.3251	6.0953e-3
7.0822	1412.0000	1.3236	6.1504e-3
7.0922	1410.0000	1.3221	6.2070e-3
7.1023	1408.0000	1.3206	6.2653e-3
7.1124	1406.0000	1.3190	6.3253e-3
7.1225	1404.0000	1.3174	6.3870e-3
7.1327	1402.0000	1.3159	6.4504e-3
7.1429	1400.0000	1.3143	6.5155e-3
7.1531	1398.0000	1.3126	6.5825e-3
7.1633	1396.0000	1.3110	6.6513e-3
7.1736	1394.0000	1.3093	6.7220e-3
7.1839	1392.0000	1.3077	6.7946e-3
7.1942	1390.0000	1.3060	6.8692e-3
7.2046	1388.0000	1.3043	6.9458e-3
7.2150	1386.0000	1.3026	7.0244e-3
7.2254	1384.0000	1.3008	7.1052e-3
7.2359	1382.0000	1.2990	7.1881e-3
7.2464	1380.0000	1.2973	7.2732e-3
7.2569	1378.0000	1.2954	7.3607e-3
7.2674	1376.0000	1.2936	7.4505e-3
7.2780	1374.0000	1.2917	7.5427e-3
7.2886	1372.0000	1.2899	7.6373e-3
7.2993	1370.0000	1.2880	7.7346e-3
7.3099	1368.0000	1.2860	7.8344e-3
7.3206	1366.0000	1.2841	7.9370e-3
7.3314	1364.0000	1.2821	8.0424e-3
7.3421	1362.0000	1.2801	8.1506e-3
7.3529	1360.0000	1.2780	8.2619e-3
7.3638	1358.0000	1.2760	8.3761e-3
7.3746	1356.0000	1.2739	8.4936e-3
7.3855	1354.0000	1.2717	8.6143e-3
7.3964	1352.0000	1.2696	8.7384e-3
7.4074	1350.0000	1.2674	8.8660e-3
7.4184	1348.0000	1.2651	8.9972e-3
7.4294	1346.0000	1.2629	9.1322e-3
7.4405	1344.0000	1.2605	9.2710e-3
7.4516	1342.0000	1.2582	9.4139e-3
7.4627	1340.0000	1.2558	9.5609e-3
7.4738	1338.0000	1.2534	9.7123e-3
7.4850	1336.0000	1.2509	9.8681e-3
7.4963	1334.0000	1.2484	0.0100
7.5075	1332.0000	1.2459	0.0102
7.5188	1330.0000	1.2433	0.0104
7.5301	1328.0000	1.2407	0.0105
7.5415	1326.0000	1.2380	0.0107
7.5529	1324.0000	1.2352	0.0109
7.5643	1322.0000	1.2324	0.0111
7.5758	1320.0000	1.2296	0.0113
7.5873	1318.0000	1.2267	0.0115
7.5988	1316.0000	1.2238	0.0117
7.6104	1314.0000	1.2207	0.0119
7.6220	1312.0000	1.2177	0.0122
7.6336	1310.0000	1.2145	0.0124
7.6453	1308.0000	1.2114	0.0126
7.6570	1306.0000	1.2081	0.0129
7.6687	1304.0000	1.2048	0.0131
7.6805	1302.0000	1.2014	0.0134
7.6923	1300.0000	1.1979	0.0137
7.7042	1298.0000	1.1943	0.0140
7.7160	1296.0000	1.1907	0.0143
7.7280	1294.0000	1.1870	0.0146
7.7399	1292.0000	1.1832	0.0149
7.7519	1290.0000	1.1793	0.0152
7.7640	1288.0000	1.1753	0.0156
7.7760	1286.0000	1.1712	0.0159
7.7882	1284.0000	1.1670	0.0163
7.8003	1282.0000	1.1628	0.0167
7.8125	1280.0000	1.1584	0.0171
7.8247	1278.0000	1.1539	0.0175
7.8370	1276.0000	1.1492	0.0180
7.8493	1274.0000	1.1445	0.0184
7.8616	1272.0000	1.1396	0.0189
7.8740	1270.0000	1.1346	0.0194
7.8864	1268.0000	1.1295	0.0199
7.8989	1266.0000	1.1242	0.0205
7.9114	1264.0000	1.1187	0.0210
7.9239	1262.0000	1.1131	0.0216
7.9365	1260.0000	1.1073	0.0222
7.9491	1258.0000	1.1014	0.0229
7.9618	1256.0000	1.0953	0.0236
7.9745	1254.0000	1.0889	0.0243
7.9872	1252.0000	1.0824	0.0251
8.0000	1250.0000	1.0757	0.0259
8.0128	1248.0000	1.0687	0.0267
8.0257	1246.0000	1.0615	0.0276
8.0386	1244.0000	1.0540	0.0285
8.0515	1242.0000	1.0463	0.0295
8.0645	1240.0000	1.0383	0.0306
8.0775	1238.0000	1.0300	0.0317
8.0906	1236.0000	1.0214	0.0329
8.1037	1234.0000	1.0124	0.0341
8.1169	1232.0000	1.0031	0.0355
8.1301	1230.0000	0.9934	0.0369
8.1433	1228.0000	0.9834	0.0384
8.1566	1226.0000	0.9728	0.0401
8.1699	1224.0000	0.9618	0.0418
8.1833	1222.0000	0.9504	0.0437
8.1967	1220.0000	0.9383	0.0458
8.2102	1218.0000	0.9258	0.0480
8.2237	1216.0000	0.9125	0.0503
8.2372	1214.0000	0.8987	0.0529
8.2508	1212.0000	0.8841	0.0558
8.2645	1210.0000	0.8687	0.0588
8.2781	1208.0000	0.8524	0.0622
8.2919	1206.0000	0.8352	0.0660
8.3056	1204.0000	0.8170	0.0701
8.3195	1202.0000	0.7976	0.0747
8.3333	1200.0000	0.7770	0.0798
8.3472	1198.0000	0.7550	0.0857
8.3612	1196.0000	0.7314	0.0923
8.3752	1194.0000	0.7061	0.0998
8.3893	1192.0000	0.6789	0.1086
8.4034	1190.0000	0.6494	0.1188
8.4175	1188.0000	0.6176	0.1309
8.4317	1186.0000	0.5830	0.1455
8.4459	1184.0000	0.5455	0.1634
8.4602	1182.0000	0.5050	0.1858
8.4746	1180.0000	0.4618	0.2140
8.4890	1178.0000	0.4172	0.2500
8.5034	1176.0000	0.3737	0.2951
8.5179	1174.0000	0.3345	0.3491
8.5324	1172.0000	0.3025	0.4095
8.5470	1170.0000	0.2783	0.4732
8.5616	1168.0000	0.2607	0.5378
8.5763	1166.0000	0.2485	0.6022
8.5911	1164.0000	0.2404	0.6661
8.6059	1162.0000	0.2354	0.7295
8.6207	1160.0000	0.2329	0.7928
8.6356	1158.0000	0.2325	0.8563
8.6505	1156.0000	0.2341	0.9203
8.6655	1154.0000	0.2373	0.9852
8.6806	1152.0000	0.2422	1.0513
8.6957	1150.0000	0.2488	1.1191
8.7108	1148.0000	0.2571	1.1889
8.7260	1146.0000	0.2673	1.2613
8.7413	1144.0000	0.2797	1.3366
8.7566	1142.0000	0.2945	1.4154
8.7719	1140.0000	0.3121	1.4984
8.7873	1138.0000	0.3330	1.5861
8.8028	1136.0000	0.3580	1.6794
8.8183	1134.0000	0.3879	1.7793
8.8339	1132.0000	0.4239	1.8867
8.8496	1130.0000	0.4679	2.0031
8.8652	1128.0000	0.5221	2.1297
8.8810	1126.0000	0.5897	2.2684
8.8968	1124.0000	0.6756	2.4206
8.9127	1122.0000	0.7865	2.5880
8.9286	1120.0000	0.9325	2.7709
8.9445	1118.0000	1.1286	2.9669
8.9606	1116.0000	1.3957	3.1662
8.9767	1114.0000	1.7603	3.3430
8.9928	1112.0000	2.2422	3.4410
9.0090	1110.0000	2.8177	3.3692
9.0253	1108.0000	3.3715	3.0538
9.0416	1106.0000	3.7419	2.5455
9.0580	1104.0000	3.8718	2.0036
9.0744	1102.0000	3.8300	1.5461
9.0909	1100.0000	3.7063	1.1998
9.1075	1098.0000	3.5570	0.9470
9.1241	1096.0000	3.4085	0.7623
9.1408	1094.0000	3.2708	0.6256
9.1575	1092.0000	3.1467	0.5223
9.1743	1090.0000	3.0361	0.4427
9.1912	1088.0000	2.9377	0.3802
9.2081	1086.0000	2.8502	0.3303
9.2251	1084.0000	2.7720	0.2898
9.2421	1082.0000	2.7018	0.2565
9.2593	1080.0000	2.6386	0.2288
9.2764	1078.0000	2.5814	0.2055
9.2937	1076.0000	2.5295	0.1858
9.3110	1074.0000	2.4820	0.1688
9.3284	1072.0000	2.4386	0.1541
9.3458	1070.0000	2.3986	0.1414
9.3633	1068.0000	2.3618	0.1302
9.3809	1066.0000	2.3277	0.1204
9.3985	1064.0000	2.2960	0.1117
9.4162	1062.0000	2.2665	0.1040
9.4340	1060.0000	2.2390	0.0971
9.4518	1058.0000	2.2133	0.0908
9.4697	1056.0000	2.1891	0.0853
9.4877	1054.0000	2.1664	0.0802
9.5057	1052.0000	2.1451	0.0756
9.5238	1050.0000	2.1249	0.0714
9.5420	1048.0000	2.1059	0.0676
9.5602	1046.0000	2.0879	0.0641
9.5785	1044.0000	2.0708	0.0609
9.5969	1042.0000	2.0545	0.0580
9.6154	1040.0000	2.0391	0.0552
9.6339	1038.0000	2.0244	0.0527
9.6525	1036.0000	2.0103	0.0504
9.6712	1034.0000	1.9969	0.0482
9.6899	1032.0000	1.9841	0.0462
9.7087	1030.0000	1.9719	0.0444
9.7276	1028.0000	1.9601	0.0426
9.7466	1026.0000	1.9489	0.0410
9.7656	1024.0000	1.9381	0.0395
9.7847	1022.0000	1.9277	0.0381
9.8039	1020.0000	1.9177	0.0367
9.8232	1018.0000	1.9081	0.0355
9.8425	1016.0000	1.8988	0.0343
9.8619	1014.0000	1.8898	0.0332
9.8814	1012.0000	1.8812	0.0322
9.9010	1010.0000	1.8729	0.0312
9.9206	1008.0000	1.8648	0.0303
9.9404	1006.0000	1.8570	0.0294
9.9602	1004.0000	1.8495	0.0286
9.9800	1002.0000	1.8422	0.0278
10.0000	1000.0000	1.8351	0.0271
10.0200	998.0000	1.8282	0.0264
10.0402	996.0000	1.8215	0.0257
10.0604	994.0000	1.8151	0.0251
10.0806	992.0000	1.8088	0.0245
10.1010	990.0000	1.8026	0.0239
10.1215	988.0000	1.7967	0.0234
10.1420	986.0000	1.7909	0.0229
10.1626	984.0000	1.7853	0.0224
10.1833	982.0000	1.7798	0.0219
10.2041	980.0000	1.7744	0.0215
10.2249	978.0000	1.7692	0.0211
10.2459	976.0000	1.7641	0.0207
10.2669	974.0000	1.7591	0.0203
10.2881	972.0000	1.7542	0.0199
10.3093	970.0000	1.7495	0.0196
10.3306	968.0000	1.7448	0.0192
10.3520	966.0000	1.7403	0.0189
10.3734	964.0000	1.7358	0.0186
10.3950	962.0000	1.7315	0.0183
10.4167	960.0000	1.7272	0.0181
10.4384	958.0000	1.7231	0.0178
10.4603	956.0000	1.7190	0.0176
10.4822	954.0000	1.7150	0.0173
10.5042	952.0000	1.7110	0.0171
10.5263	950.0000	1.7072	0.0169
10.5485	948.0000	1.7034	0.0167
10.5708	946.0000	1.6997	0.0165
10.5932	944.0000	1.6960	0.0163
10.6157	942.0000	1.6924	0.0162
10.6383	940.0000	1.6889	0.0160
10.6610	938.0000	1.6854	0.0158
10.6838	936.0000	1.6820	0.0157
10.7066	934.0000	1.6786	0.0156
10.7296	932.0000	1.6753	0.0154
10.7527	930.0000	1.6721	0.0153
10.7759	928.0000	1.6689	0.0152
10.7991	926.0000	1.6657	0.0151
10.8225	924.0000	1.6626	0.0150
10.8460	922.0000	1.6595	0.0149
10.8696	920.0000	1.6565	0.0148
10.8932	918.0000	1.6535	0.0147
10.9170	916.0000	1.6505	0.0146
10.9409	914.0000	1.6476	0.0145
10.9649	912.0000	1.6447	0.0145
10.9890	910.0000	1.6419	0.0144
11.0132	908.0000	1.6391	0.0143
11.0375	906.0000	1.6363	0.0143
11.0619	904.0000	1.6336	0.0142
11.0865	902.0000	1.6308	0.0142
11.1111	900.0000	1.6282	0.0142
11.1359	898.0000	1.6255	0.0141
11.1607	896.0000	1.6229	0.0141
11.1857	894.0000	1.6202	0.0141
11.2108	892.0000	1.6177	0.0141
11.2360	890.0000	1.6151	0.0141
11.2613	888.0000	1.6126	0.0140
11.2867	886.0000	1.6100	0.0140
11.3122	884.0000	1.6075	0.0140
11.3379	882.0000	1.6051	0.0140
11.3636	880.0000	1.6026	0.0141
11.3895	878.0000	1.6001	0.0141
11.4155	876.0000	1.5977	0.0141
11.4416	874.0000	1.5953	0.0141
11.4679	872.0000	1.5929	0.0141
11.4943	870.0000	1.5905	0.0142
11.5207	868.0000	1.5882	0.0142
11.5473	866.0000	1.5858	0.0142
11.5741	864.0000	1.5835	0.0143
11.6009	862.0000	1.5811	0.0143
11.6279	860.0000	1.5788	0.0144
11.6550	858.0000	1.5765	0.0144
11.6822	856.0000	1.5742	0.0145
11.7096	854.0000	1.5719	0.0145
11.7371	852.0000	1.5696	0.0146
11.7647	850.0000	1.5673	0.0147
11.7925	848.0000	1.5651	0.0148
11.8203	846.0000	1.5628	0.0148
11.8483	844.0000	1.5605	0.0149
11.8765	842.0000	1.5583	0.0150
11.9048	840.0000	1.5560	0.0151
11.9332	838.0000	1.5538	0.0152
11.9617	836.0000	1.5515	0.0153
11.9904	834.0000	1.5492	0.0154
12.0192	832.0000	1.5470	0.0155
12.0482	830.0000	1.5447	0.0157
12.0773	828.0000	1.5425	0.0158
12.1065	826.0000	1.5402	0.0159
12.1359	824.0000	1.5380	0.0160
12.1655	822.0000	1.5357	0.0162
12.1951	820.0000	1.5335	0.0163
12.2249	818.0000	1.5312	0.0165
12.2549	816.0000	1.5289	0.0166
12.2850	814.0000	1.5267	0.0168
12.3153	812.0000	1.5244	0.0169
12.3457	810.0000	1.5221	0.0171
12.3762	808.0000	1.5198	0.0173
12.4069	806.0000	1.5175	0.0175
12.4378	804.0000	1.5152	0.0177
12.4688	802.0000	1.5129	0.0179
12.5000	800.0000	1.5105	0.0181
12.5313	798.0000	1.5082	0.0183
12.5628	796.0000	1.5058	0.0185
12.5945	794.0000	1.5034	0.0187
12.6263	792.0000	1.5010	0.0190
12.6582	790.0000	1.4986	0.0192
12.6904	788.0000	1.4962	0.0195
12.7226	786.0000	1.4938	0.0197
12.7551	784.0000	1.4913	0.0200
12.7877	782.0000	1.4889	0.0203
12.8205	780.0000	1.4864	0.0205
12.8535	778.0000	1.4838	0.0208
12.8866	776.0000	1.4813	0.0211
12.9199	774.0000	1.4787	0.0215
12.9534	772.0000	1.4762	0.0218
12.9870	770.0000	1.4735	0.0221
13.0208	768.0000	1.4709	0.0225
13.0548	766.0000	1.4682	0.0228
13.0890	764.0000	1.4655	0.0232
13.1234	762.0000	1.4628	0.0236
13.1579	760.0000	1.4600	0.0240
13.1926	758.0000	1.4573	0.0244
13.2275	756.0000	1.4544	0.0248
13.2626	754.0000	1.4516	0.0253
13.2979	752.0000	1.4486	0.0257
13.3333	750.0000	1.4457	0.0262
13.3690	748.0000	1.4427	0.0267
13.4048	746.0000	1.4397	0.0272
13.4409	744.0000	1.4366	0.0278
13.4771	742.0000	1.4335	0.0283
13.5135	740.0000	1.4303	0.0289
13.5501	738.0000	1.4270	0.0295
13.5870	736.0000	1.4238	0.0301
13.6240	734.0000	1.4204	0.0307
13.6612	732.0000	1.4170	0.0314
13.6986	730.0000	1.4135	0.0321
13.7363	728.0000	1.4100	0.0328
13.7741	726.0000	1.4064	0.0336
13.8122	724.0000	1.4027	0.0344
13.8504	722.0000	1.3990	0.0352
13.8889	720.0000	1.3951	0.0361
13.9276	718.0000	1.3912	0.0370
13.9665	716.0000	1.3872	0.0379
14.0056	714.0000	1.3831	0.0389
14.0449	712.0000	1.3789	0.0399
14.0845	710.0000	1.3746	0.0410
14.1243	708.0000	1.3702	0.0421
14.1643	706.0000	1.3657	0.0433
14.2045	704.0000	1.3611	0.0445
14.2450	702.0000	1.3563	0.0458
14.2857	700.0000	1.3515	0.0471
14.3266	698.0000	1.3464	0.0486
14.3678	696.0000	1.3413	0.0501
14.4092	694.0000	1.3360	0.0517
14.4509	692.0000	1.3305	0.0534
14.4928	690.0000	1.3248	0.0551
14.5349	688.0000	1.3190	0.0570
14.5773	686.0000	1.3129	0.0590
14.6199	684.0000	1.3067	0.0611
14.6628	682.0000	1.3002	0.0633
14.7059	680.0000	1.2936	0.0657
14.7493	678.0000	1.2866	0.0683
14.7929	676.0000	1.2794	0.0710
14.8368	674.0000	1.2719	0.0739
14.8810	672.0000	1.2642	0.0770
14.9254	670.0000	1.2560	0.0803
14.9701	668.0000	1.2476	0.0839
15.0150	666.0000	1.2388	0.0878
15.0602	664.0000	1.2296	0.0919
15.1057	662.0000	1.2199	0.0964
15.1515	660.0000	1.2098	0.1014
15.1976	658.0000	1.1992	0.1067
15.2439	656.0000	1.1881	0.1125
15.2905	654.0000	1.1764	0.1189
15.3374	652.0000	1.1640	0.1259
15.3846	650.0000	1.1510	0.1337
15.4321	648.0000	1.1373	0.1422
15.4799	646.0000	1.1228	0.1518
15.5280	644.0000	1.1075	0.1625
15.5763	642.0000	1.0913	0.1744
15.6250	640.0000	1.0741	0.1879
15.6740	638.0000	1.0561	0.2032
15.7233	636.0000	1.0370	0.2206
15.7729	634.0000	1.0170	0.2405
15.8228	632.0000	0.9961	0.2634
15.8730	630.0000	0.9745	0.2898
15.9236	628.0000	0.9524	0.3205
15.9744	626.0000	0.9305	0.3560
16.0256	624.0000	0.9094	0.3973
16.0772	622.0000	0.8903	0.4449
16.1290	620.0000	0.8743	0.4993
16.1812	618.0000	0.8634	0.5608
16.2338	616.0000	0.8592	0.6292
16.2866	614.0000	0.8637	0.7037
16.3399	612.0000	0.8788	0.7835
16.3934	610.0000	0.9062	0.8673
16.4474	608.0000	0.9480	0.9532
16.5017	606.0000	1.0063	1.0391
16.5563	604.0000	1.0833	1.1215
16.6113	602.0000	1.1810	1.1955
16.6667	600.0000	1.3000	1.2544
16.7224	598.0000	1.4380	1.2892
16.7785	596.0000	1.5880	1.2909
16.8350	594.0000	1.7373	1.2536
16.8919	592.0000	1.8698	1.1788
16.9492	590.0000	1.9723	1.0765
17.0068	588.0000	2.0390	0.9620
17.0648	586.0000	2.0726	0.8493
17.1233	584.0000	2.0805	0.7473
17.1821	582.0000	2.0709	0.6602
17.2414	580.0000	2.0508	0.5883
17.3010	578.0000	2.0252	0.5302
17.3611	576.0000	1.9975	0.4839
17.4216	574.0000	1.9696	0.4474
17.4825	572.0000	1.9428	0.4188
17.5439	570.0000	1.9179	0.3967
17.6056	568.0000	1.8952	0.3796
17.6678	566.0000	1.8748	0.3667
17.7305	564.0000	1.8568	0.3570
17.7936	562.0000	1.8412	0.3499
17.8571	560.0000	1.8279	0.3448
17.9211	558.0000	1.8169	0.3411
17.9856	556.0000	1.8079	0.3385
18.0505	554.0000	1.8009	0.3365
18.1159	552.0000	1.7957	0.3349
18.1818	550.0000	1.7922	0.3333
18.2482	548.0000	1.7900	0.3315
18.3150	546.0000	1.7891	0.3293
18.3824	544.0000	1.7891	0.3266
18.4502	542.0000	1.7900	0.3233
18.5185	540.0000	1.7914	0.3192
18.5874	538.0000	1.7932	0.3144
18.6567	536.0000	1.7952	0.3089
18.7266	534.0000	1.7971	0.3026
18.7970	532.0000	1.7989	0.2958
18.8679	530.0000	1.8004	0.2883
18.9394	528.0000	1.8015	0.2804
19.0114	526.0000	1.8021	0.2722
19.0840	524.0000	1.8023	0.2636
19.1571	522.0000	1.8019	0.2549
19.2308	520.0000	1.8010	0.2461
19.3050	518.0000	1.7996	0.2374
19.3798	516.0000	1.7976	0.2287
19.4553	514.0000	1.7952	0.2201
19.5313	512.0000	1.7923	0.2117
19.6078	510.0000	1.7891	0.2036
19.6850	508.0000	1.7854	0.1957
19.7628	506.0000	1.7814	0.1882
19.8413	504.0000	1.7771	0.1809
19.9203	502.0000	1.7726	0.1739
20.0000	500.0000	1.7679	0.1673
20.0803	498.0000	1.7630	0.1609
20.1613	496.0000	1.7579	0.1549
20.2429	494.0000	1.7527	0.1492
20.3252	492.0000	1.7473	0.1438
20.4082	490.0000	1.7419	0.1387
20.4918	488.0000	1.7365	0.1339
20.5761	486.0000	1.7309	0.1293
20.6612	484.0000	1.7254	0.1250
20.7469	482.0000	1.7198	0.1209
20.8333	480.0000	1.7141	0.1171
20.9205	478.0000	1.7085	0.1135
21.0084	476.0000	1.7029	0.1101
21.0970	474.0000	1.6973	0.1069
21.1864	472.0000	1.6917	0.1039
21.2766	470.0000	1.6860	0.1011
21.3675	468.0000	1.6804	0.0985
21.4592	466.0000	1.6749	0.0960
21.5517	464.0000	1.6693	0.0937
21.6450	462.0000	1.6637	0.0915
21.7391	460.0000	1.6582	0.0895
21.8341	458.0000	1.6527	0.0876
21.9298	456.0000	1.6472	0.0858
22.0264	454.0000	1.6417	0.0841
22.1239	452.0000	1.6362	0.0826
22.2222	450.0000	1.6307	0.0812
22.3214	448.0000	1.6252	0.0798
22.4215	446.0000	1.6197	0.0786
22.5225	444.0000	1.6142	0.0775
22.6244	442.0000	1.6088	0.0765
22.7273	440.0000	1.6033	0.0756
22.8311	438.0000	1.5978	0.0747
22.9358	436.0000	1.5923	0.0740
23.0415	434.0000	1.5868	0.0733
23.1481	432.0000	1.5813	0.0727
23.2558	430.0000	1.5757	0.0722
23.3645	428.0000	1.5701	0.0717
23.4742	426.0000	1.5645	0.0714
23.5849	424.0000	1.5589	0.0711
23.6967	422.0000	1.5532	0.0709
23.8095	420.0000	1.5475	0.0708
23.9234	418.0000	1.5418	0.0707
24.0385	416.0000	1.5360	0.0708
24.1546	414.0000	1.5301	0.0709
24.2718	412.0000	1.5242	0.0710
24.3902	410.0000	1.5182	0.0713
24.5098	408.0000	1.5122	0.0716
24.6305	406.0000	1.5061	0.0720
24.7525	404.0000	1.4999	0.0725
24.8756	402.0000	1.4936	0.0731
25.0000	400.0000	1.4872	0.0738
25.1256	398.0000	1.4807	0.0746
25.2525	396.0000	1.4742	0.0754
25.3807	394.0000	1.4675	0.0764
25.5102	392.0000	1.4607	0.0774
25.6410	390.0000	1.4538	0.0786
25.7732	388.0000	1.4467	0.0798
25.9067	386.0000	1.4395	0.0812
26.0417	384.0000	1.4322	0.0828
26.1780	382.0000	1.4247	0.0844
26.3158	380.0000	1.4171	0.0862
26.4550	378.0000	1.4092	0.0882
26.5957	376.0000	1.4012	0.0903
26.7380	374.0000	1.3930	0.0925
26.8817	372.0000	1.3846	0.0950
27.0270	370.0000	1.3760	0.0977
27.1739	368.0000	1.3671	0.1006
27.3224	366.0000	1.3580	0.1037
27.4725	364.0000	1.3487	0.1071
27.6243	362.0000	1.3390	0.1108
27.7778	360.0000	1.3291	0.1148
27.9330	358.0000	1.3189	0.1192
28.0899	356.0000	1.3085	0.1239
28.2486	354.0000	1.2976	0.1291
28.4091	352.0000	1.2865	0.1347
28.5714	350.0000	1.2750	0.1409
28.7356	348.0000	1.2632	0.1476
28.9017	346.0000	1.2510	0.1549
29.0698	344.0000	1.2385	0.1630
29.2398	342.0000	1.2257	0.1719
29.4118	340.0000	1.2125	0.1818
29.5858	338.0000	1.1991	0.1926
29.7619	336.0000	1.1854	0.2046
29.9401	334.0000	1.1715	0.2178
30.1205	332.0000	1.1576	0.2325
30.3030	330.0000	1.1437	0.2488
30.4878	328.0000	1.1301	0.2669
30.6748	326.0000	1.1170	0.2868
30.8642	324.0000	1.1047	0.3088
31.0559	322.0000	1.0936	0.3330
31.2500	320.0000	1.0841	0.3593
31.4465	318.0000	1.0769	0.3877
31.6456	316.0000	1.0725	0.4179
31.8471	314.0000	1.0714	0.4495
32.0513	312.0000	1.0743	0.4820
32.2581	310.0000	1.0816	0.5144
32.4675	308.0000	1.0935	0.5457
32.6797	306.0000	1.1099	0.5747
32.8947	304.0000	1.1304	0.6002
33.1126	302.0000	1.1541	0.6210
33.3333	300.0000	1.1799	0.6362
33.5570	298.0000	1.2060	0.6452
33.7838	296.0000	1.2308	0.6481
34.0136	294.0000	1.2526	0.6452
34.2466	292.0000	1.2698	0.6379
34.4828	290.0000	1.2816	0.6273
34.7222	288.0000	1.2873	0.6152
34.9650	286.0000	1.2870	0.6031
35.2113	284.0000	1.2810	0.5923
35.4610	282.0000	1.2700	0.5841
35.7143	280.0000	1.2545	0.5792
35.9712	278.0000	1.2355	0.5782
36.2319	276.0000	1.2136	0.5818
36.4964	274.0000	1.1897	0.5902
36.7647	272.0000	1.1645	0.6037
37.0370	270.0000	1.1387	0.6224
37.3134	268.0000	1.1130	0.6466
37.5940	266.0000	1.0882	0.6763
37.8788	264.0000	1.0652	0.7115
38.1679	262.0000	1.0447	0.7521
38.4615	260.0000	1.0276	0.7978
38.7597	258.0000	1.0146	0.8482
39.0625	256.0000	1.0066	0.9027
39.3701	254.0000	1.0040	0.9609
39.6825	252.0000	1.0074	1.0220
40.0000	250.0000	1.0172	1.0854
40.3226	248.0000	1.0339	1.1504
40.6504	246.0000	1.0577	1.2163
40.9836	244.0000	1.0892	1.2824
41.3223	242.0000	1.1285	1.3479
41.6667	240.0000	1.1762	1.4117
42.0168	238.0000	1.2326	1.4728
42.3729	236.0000	1.2980	1.5298
42.7350	234.0000	1.3724	1.5808
43.1034	232.0000	1.4555	1.6241
43.4783	230.0000	1.5464	1.6573
43.8596	228.0000	1.6438	1.6781
44.2478	226.0000	1.7452	1.6845
44.6429	224.0000	1.8473	1.6748
45.0450	222.0000	1.9461	1.6484
45.4545	220.0000	2.0375	1.6060
45.8716	218.0000	2.1173	1.5498
46.2963	216.0000	2.1822	1.4831
46.7290	214.0000	2.2304	1.4101
47.1698	212.0000	2.2612	1.3353
47.6190	210.0000	2.2752	1.2626
48.0769	208.0000	2.2738	1.1958
48.5437	206.0000	2.2592	1.1374
49.0196	204.0000	2.2333	1.0898
49.5050	202.0000	2.1984	1.0549
50.0000	200.0000	2.1566	1.0342
50.5051	198.0000	2.1102	1.0296
51.0204	196.0000	2.0620	1.0431
51.5464	194.0000	2.0155	1.0768
52.0833	192.0000	1.9756	1.1329
52.6316	190.0000	1.9494	1.2128
53.1915	188.0000	1.9459	1.3157
53.7634	186.0000	1.9760	1.4372
54.3478	184.0000	2.0508	1.5676
54.9451	182.0000	2.1789	1.6906
55.5556	180.0000	2.3625	1.7829
56.1798	178.0000	2.5907	1.8169
56.8182	176.0000	2.8350	1.7703
57.4713	174.0000	3.0536	1.6411
58.1395	172.0000	3.2113	1.4544
58.8235	170.0000	3.2968	1.2483
59.5238	168.0000	3.3214	1.0539
60.2410	166.0000	3.3049	0.8862
60.9756	164.0000	3.2650	0.7484
61.7284	162.0000	3.2139	0.6374
62.5000	160.0000	3.1589	0.5484
63.2911	158.0000	3.1041	0.4768
64.1026	156.0000	3.0514	0.4187
64.9351	154.0000	3.0019	0.3711
65.7895	152.0000	2.9558	0.3317
66.6667	150.0000	2.9131	0.2987
67.5676	148.0000	2.8737	0.2707
68.4932	146.0000	2.8372	0.2469
69.4444	144.0000	2.8035	0.2263
70.4225	142.0000	2.7723	0.2084
71.4286	140.0000	2.7433	0.1927
72.4638	138.0000	2.7164	0.1789
73.5294	136.0000	2.6913	0.1666
74.6269	134.0000	2.6678	0.1556
75.7576	132.0000	2.6459	0.1457
76.9231	130.0000	2.6254	0.1368
78.1250	128.0000	2.6061	0.1287
79.3651	126.0000	2.5880	0.1214
80.6452	124.0000	2.5709	0.1146
81.9672	122.0000	2.5548	0.1085
83.3333	120.0000	2.5396	0.1028
84.7458	118.0000	2.5252	0.0975
86.2069	116.0000	2.5116	0.0926
87.7193	114.0000	2.4986	0.0881
89.2857	112.0000	2.4863	0.0839
90.9091	110.0000	2.4747	0.0799
92.5926	108.0000	2.4636	0.0763
94.3396	106.0000	2.4530	0.0728
96.1538	104.0000	2.4429	0.0695
98.0392	102.0000	2.4333	0.0665
100.0000	100.0000	2.4242	0.0636
102.0408	98.0000	2.4154	0.0609
104.1667	96.0000	2.4071	0.0583
106.3830	94.0000	2.3991	0.0558
108.6957	92.0000	2.3914	0.0535
111.1111	90.0000	2.3841	0.0512
113.6364	88.0000	2.3771	0.0491
116.2791	86.0000	2.3704	0.0471
119.0476	84.0000	2.3640	0.0452
121.9512	82.0000	2.3579	0.0433
125.0000	80.0000	2.3520	0.0416
128.2051	78.0000	2.3464	0.0399
131.5789	76.0000	2.3410	0.0382
135.1351	74.0000	2.3359	0.0367
138.8889	72.0000	2.3309	0.0352
142.8571	70.0000	2.3262	0.0337
147.0588	68.0000	2.3217	0.0323
151.5152	66.0000	2.3173	0.0309
156.2500	64.0000	2.3132	0.0296
161.2903	62.0000	2.3092	0.0284
166.6667	60.0000	2.3054	0.0271
172.4138	58.0000	2.3018	0.0259
178.5714	56.0000	2.2984	0.0248
185.1852	54.0000	2.2951	0.0237
192.3077	52.0000	2.2919	0.0226
200.0000	50.0000	2.2889	0.0215
208.3333	48.0000	2.2861	0.0204
217.3913	46.0000	2.2834	0.0194
227.2727	44.0000	2.2808	0.0184
238.0952	42.0000	2.2784	0.0175
250.0000	40.0000	2.2761	0.0165
263.1579	38.0000	2.2739	0.0156
277.7778	36.0000	2.2719	0.0147
294.1176	34.0000	2.2700	0.0138
312.5000	32.0000	2.2682	0.0129
333.3333	30.0000	2.2665	0.0120