From Rouleau, F. and P.G. Martin, Shape and clustering effects on the
optical properties of amorphous carbon, Astrophys. J., 377, 526-540, 1991.
Sample:  AC1
      Wavelength       Wave          real     imaginary
      (microns)       Number        index       index   
     3.54290E-04    2.82260E+07    1.00000    2.96400E-07
     3.75080E-04    2.66610E+07    1.00000    3.73100E-07
     3.96930E-04    2.51940E+07    1.00000    4.68800E-07
     4.20200E-04    2.37980E+07    1.00000    5.88300E-07
     4.44760E-04    2.24840E+07    1.00000    7.37800E-07
     4.70770E-04    2.12420E+07    1.00000    9.24700E-07
     4.98390E-04    2.00650E+07    1.00000    1.16100E-06
     5.27660E-04    1.89520E+07    1.00000    1.45800E-06
     5.58310E-04    1.79110E+07    1.00000    1.82900E-06
     5.91040E-04    1.69190E+07    1.00000    2.28500E-06
     6.25630E-04    1.59840E+07    1.00000    2.86000E-06
     6.62390E-04    1.50970E+07    1.00000    3.58100E-06
     7.00960E-04    1.42660E+07    1.00000    4.48000E-06
     7.42070E-04    1.34760E+07    1.00000    5.60100E-06
     7.85800E-04    1.27260E+07    1.00000    6.99100E-06
     8.31660E-04    1.20240E+07    1.00000    8.72200E-06
     8.80060E-04    1.13630E+07    1.00000    1.08500E-05
     9.31630E-04    1.07340E+07    1.00000    1.35100E-05
     9.86480E-04    1.01370E+07    1.00000    1.68600E-05
     1.04380E-03    9.58060E+06    1.00000    2.10800E-05
     1.10520E-03    9.04840E+06    1.00000    2.61700E-05
     1.16980E-03    8.54840E+06    1.00000    3.24200E-05
     1.23880E-03    8.07260E+06    1.00000    4.03700E-05
     1.31060E-03    7.62980E+06    1.00000    4.99100E-05
     1.38730E-03    7.20810E+06   0.999500    6.18200E-05
     1.46850E-03    6.80970E+06   0.999400    7.66400E-05
     1.55450E-03    6.43310E+06   0.999300    9.46100E-05
     1.64540E-03    6.07740E+06   0.999300    1.17400E-04
     1.74180E-03    5.74110E+06   0.999200    1.45200E-04
     1.84390E-03    5.42340E+06   0.999100    1.75900E-04
     1.95150E-03    5.12420E+06   0.999000    2.17800E-04
     2.06600E-03    4.84030E+06   0.998900    2.67500E-04
     2.18690E-03    4.57260E+06   0.998700    3.28000E-04
     2.31470E-03    4.32020E+06   0.998600    4.02800E-04
     2.45010E-03    4.08150E+06   0.998500    4.89300E-04
     2.59360E-03    3.85560E+06   0.998300    5.98200E-04
     2.74520E-03    3.64270E+06   0.998100    7.31500E-04
     2.90600E-03    3.44110E+06   0.998000    8.87200E-04
     3.07620E-03    3.25080E+06   0.997800    1.07900E-03
     3.25630E-03    3.07100E+06   0.997600    1.32700E-03
     3.44730E-03    2.90080E+06   0.997500    1.62200E-03
     3.64810E-03    2.74110E+06   0.997400    1.97100E-03
     3.86170E-03    2.58950E+06   0.997500    2.39000E-03
     4.08840E-03    2.44600E+06   0.998300    2.90300E-03
     4.32810E-03    2.31050E+06   0.999200    3.52100E-03
     4.58070E-03    2.18310E+06   0.998700    1.68700E-04
     4.84940E-03    2.06210E+06   0.997400    2.04800E-04
     5.13250E-03    1.94840E+06   0.996600    2.49200E-04
     5.43380E-03    1.84030E+06   0.995800    3.03100E-04
     5.75410E-03    1.73790E+06   0.995100    3.68500E-04
     6.08740E-03    1.64270E+06   0.994300    4.47900E-04
     6.44490E-03    1.55160E+06   0.993400    5.43000E-04
     6.82070E-03    1.46610E+06   0.992400    6.55200E-04
     7.22190E-03    1.38470E+06   0.991400    7.90500E-04
     8.14720E-03    1.22740E+06   0.990200    9.52900E-04
     8.08870E-03    1.23630E+06   0.988900    1.14800E-03
     8.56350E-03    1.16770E+06   0.987400    1.38400E-03
     9.06430E-03    1.10320E+06   0.985800    1.66700E-03
     9.59750E-03    1.04190E+06   0.984000    1.98600E-03
     1.01560E-02    984680.   0.982000    2.34000E-03
     1.07550E-02    929840.   0.979700    2.75200E-03
     1.13760E-02    879030.   0.977100    3.25500E-03
     1.20510E-02    829840.   0.974200    3.92500E-03
     1.27520E-02    784190.   0.970900    4.75500E-03
     1.34970E-02    740890.   0.967300    5.74700E-03
     1.42870E-02    699920.   0.963400    6.87700E-03
     1.51240E-02    661210.   0.958500    8.16800E-03
     1.60080E-02    624680.   0.953700    9.68800E-03
     1.69470E-02    590080.   0.948500    1.15300E-02
     1.79370E-02    557500.   0.941100    1.38100E-02
     1.89890E-02    526610.   0.934000    1.67000E-02
     2.01010E-02    497500.   0.925700    2.03000E-02
     2.12770E-02    470000.   0.916500    2.47600E-02
     2.25210E-02    444030.   0.906300    3.02400E-02
     2.38370E-02    419520.   0.895200    3.69100E-02
     2.52340E-02    396290.   0.883000    4.49300E-02
     2.67130E-02    374350.   0.869800    5.44600E-02
     2.82720E-02    353710.   0.855100    6.57900E-02
     2.99300E-02    334110.   0.838500    7.91300E-02
     3.16810E-02    315650.   0.825400    9.55600E-02
     3.35320E-02    298230.   0.803100   0.114600
     3.55000E-02    281690.   0.784700   0.138000
     3.75760E-02    266130.   0.762900   0.166500
     3.97690E-02    251450.   0.741400   0.201200
     4.21050E-02    237500.   0.720000   0.243300
     4.45720E-02    224350.   0.700900   0.294300
     4.71660E-02    212020.   0.686900   0.354800
     4.99400E-02    200240.   0.680400   0.424500
     5.28560E-02    189190.   0.685100   0.502000
     5.59570E-02    178710.   0.704100   0.584700
     5.92170E-02    168870.   0.739700   0.667100
     6.26900E-02    159520.   0.789300   0.743300
     6.63460E-02    150730.   0.849800   0.813500
     7.02550E-02    142340.   0.919600   0.877500
     7.43410E-02    134520.    1.00000   0.934700
     7.87300E-02    127020.    1.09000   0.982400
     8.33330E-02    120000.    1.18500    1.01800
     8.81930E-02    113390.    1.29100    1.04900
     9.33730E-02    107100.    1.40600    1.05900
     9.88050E-02   101210.0    1.52900    1.04200
     1.04640E-01    95565.0    1.63500   0.995900
    0.110710    90323.0    1.72000   0.947300
    0.117200    85323.0    1.81200   0.890900
    0.124060    80605.0    1.88700   0.808100
    0.131330    76145.0    1.93500   0.710800
    0.139010    71935.0    1.95000   0.607300
    0.147150    67960.0    1.91800   0.519400
    0.155760    64202.0    1.86900   0.479200
    0.164870    60653.0    1.82500   0.478200
    0.174520    57298.0    1.78300   0.506800
    0.184740    54129.0    1.88500   0.592900
    0.195550    51137.0    1.92600   0.583300
    0.206980    48315.0    1.99500   0.538400
    0.219120    45637.0    2.03800   0.470400
    0.231950    43113.0    2.03900   0.400600
    0.245500    40734.0    2.02200   0.361000
    0.259850    38484.0    2.01400   0.342900
    0.275070    36355.0    2.02200   0.322900
    0.291150    34347.0    2.02600   0.288400
    0.308230    32444.0    2.01200   0.252100
    0.326230    30653.0    1.98700   0.240400
    0.345400    28952.0    1.97600   0.238100
    0.365570    27355.0    1.97000   0.236000
    0.387020    25839.0    1.96700   0.233900
    0.409650    24411.0    1.96500   0.232800
    0.433570    23065.0    1.96600   0.232600
    0.458920    21790.0    1.96800   0.232100
    0.485890    20581.0    1.97000   0.231000
    0.514310    19444.0    1.97400   0.231400
    0.544340    18371.0    1.98000   0.232100
    0.576210    17355.0    1.98700   0.229100
    0.609940    16395.0    1.99100   0.225200
    0.645500    15492.0    1.99400   0.223400
    0.683570    14629.0    1.99700   0.222200
    0.723450    13823.0    2.00000   0.223300
    0.765900    13056.0    2.00500   0.225000
    0.810460    12339.0    2.01000   0.226200
    0.858130    11653.0    2.01500   0.229900
    0.908420    11008.0    2.02400   0.233900
    0.961240   10403.00    2.03400   0.235600
     1.01810    9822.60    2.04500   0.234600
     1.07730    9282.30    2.05300   0.232100
     1.14080    8766.10    2.05900   0.231700
     1.20740    8282.30    2.06600   0.233200
     1.27770    7826.60    2.07400   0.234500
     1.35240    7394.40    2.08300   0.235400
     1.43150    6985.50    2.09300   0.235700
     1.51530    6599.20    2.10300   0.234500
     1.60410    6233.90    2.11000   0.232600
     1.69790    5889.50    2.11900   0.234900
     1.79740    5563.70    2.13000   0.233500
     1.90240    5256.50    2.13800   0.231300
     2.01400    4965.30    2.14800   0.231300
     2.13170    4691.10    2.15600   0.226900
     2.25660    4431.50    2.16200   0.226200
     2.38830    4187.10    2.17000   0.225800
     2.52850    3954.80    2.17900   0.223700
     2.67650    3736.30    2.18500   0.221100
     2.83300    3529.80    2.18900   0.220700
     2.99880    3334.70    2.19400   0.224900
     3.17460    3150.00    2.20500   0.228300
     3.36040    2975.80    2.21500   0.227500
     3.55710    2811.30    2.22500   0.228600
     3.76440    2656.50    2.23600   0.224900
     3.98460    2509.70    2.24300   0.223100
     4.21770    2371.00    2.25100   0.223000
     4.46530    2239.50    2.26100   0.220300
     4.72740    2115.30    2.26800   0.216500
     5.00400    1998.40    2.27300   0.213700
     5.29690    1887.90    2.27900   0.211900
     5.60580    1783.90    2.28300   0.209700
     5.93300    1685.50    2.28500   0.210000
     6.28170    1591.90    2.28800   0.212600
     6.64880    1504.00    2.29100   0.217000
     7.03750    1421.00    2.29600   0.225300
     7.45190    1341.90    2.30600   0.233600
     7.88800    1267.70    2.31700   0.242900
     8.35020    1197.60    2.33700   0.249600
     8.83820    1131.50    2.35800   0.245400
     9.35140    1069.40    2.37000   0.236200
     9.90420    1009.70    2.38000   0.231900
    10.48200    954.030    2.38400   0.222400
     11.0910    901.610    2.38800   0.231400
     11.7420    851.610    2.40300   0.232900
     12.4300    804.520    2.42500   0.235100
     13.1580    760.000    2.44200   0.207600
     13.9280    717.980    2.43200   0.194100
     14.7430    678.310    2.42900   0.195600
     15.6050    640.810    2.43200   0.197600
     16.5200    605.320    2.43600   0.198500
     17.4870    571.850    2.44000   0.198100
     18.5100    540.240    2.44500   0.199400
     19.5920    510.400    2.44900   0.199800
     20.7390    482.180    2.45400   0.200000
     21.9550    455.480    2.45900   0.201600
     23.2380    430.320    2.46300   0.203000
     24.5980    406.530    2.46900   0.203800
     26.0390    384.030    2.47400   0.204000
     27.5620    362.820    2.50500   0.204400
     29.1760    342.740    2.51200   0.204700
     30.8840    323.790    2.51900   0.205000
     32.6920    305.890    2.52600   0.205700
     34.5980    289.030    2.53200   0.206100
     36.6320    272.980    2.53900   0.206500
     38.7740    257.900    2.54600   0.206500
     41.0460    243.630    2.55200   0.206600
     43.4480    230.160    2.55800   0.207200
     45.9770    217.500    2.56300   0.208700
     48.6850    205.400    2.56900   0.211200
     51.5160    194.110    2.57700   0.214400
     54.5290    183.390    2.58500   0.216900
     57.7280    173.230    2.59400   0.217400
     61.1140    163.630    2.60200   0.216100
     64.6840    154.600    2.60600   0.215800
     68.4700    146.050    2.61100   0.220000
     72.4720    137.980    2.61800   0.223000
     76.7330    130.320    2.62400   0.226700
     81.2050    123.150    2.63200   0.230400
     85.9920    116.290    2.63900   0.234300
     90.9760    109.920    2.64800   0.240000
     96.3480   103.7900    2.65600   0.244700
    101.9700    98.0650    2.66900   0.251100
     107.920    92.6610    2.68200   0.251900
     114.290    87.5000    2.69200   0.253500
     120.980    82.6610    2.70300   0.255900
     128.010    78.1210    2.71500   0.257900
     135.500    73.7980    2.72700   0.257700
     143.440    69.7180    2.73500   0.256300
     151.830    65.8630    2.74100   0.260000
     160.710    62.2260    2.75300   0.268000
     170.120    58.7820    2.77100   0.269300
     180.080    55.5320    2.78300   0.263200
     190.620    52.4600    2.78700   0.263600
     201.790    49.5560    2.79600   0.273900
     213.570    46.8230    2.81500   0.279300
     226.070    44.2340    2.83100   0.278500
     239.340    41.7820    2.84400   0.279300
     253.320    39.4760    2.86100   0.283200
     268.170    37.2900    2.88000   0.282400
     283.820    35.2340    2.90000   0.284500
     300.460    33.2820    2.92800   0.276100
