Estimated optical constants of the Tagish Lake meteorite, from Roush,
Meteoritics and Planetary Science, v. 38, no. 3, 419-426, 2003.
  Wavelength Frequency  real     imaginary
  (microns)    (cm-1)   index      index
   25.9207    385.79   1.77712  3.5677E-02
   25.7917    387.72   1.77129  3.5665E-02
   25.6640    389.65   1.76291  3.5115E-02
   25.5376    391.58   1.75835  3.5697E-02
   25.4124    393.51   1.75466  3.6280E-02
   25.2885    395.44   1.75190  3.5440E-02
   25.1657    397.37   1.74988  3.5857E-02
   25.0441    399.30   1.74811  3.5620E-02
   24.9237    401.22   1.74663  3.6057E-02
   24.8045    403.15   1.74481  3.6910E-02
   24.6864    405.08   1.74280  3.6778E-02
   24.5694    407.01   1.74120  3.6022E-02
   24.4535    408.94   1.74022  3.5197E-02
   24.3387    410.87   1.73951  3.5119E-02
   24.2249    412.80   1.73871  3.5305E-02
   24.1123    414.73   1.73778  3.5326E-02
   24.0006    416.66   1.73687  3.5501E-02
   23.8900    418.59   1.73569  3.5765E-02
   23.7804    420.51   1.73446  3.5372E-02
   23.6719    422.44   1.73360  3.4476E-02
   23.5643    424.37   1.73301  3.4283E-02
   23.4576    426.30   1.73221  3.4248E-02
   23.3520    428.23   1.73133  3.3529E-02
   23.2472    430.16   1.73101  3.2515E-02
   23.1435    432.09   1.73077  3.2415E-02
   23.0406    434.02   1.73031  3.2331E-02
   22.9387    435.94   1.72990  3.1572E-02
   22.8376    437.87   1.72983  3.1147E-02
   22.7374    439.80   1.72961  3.1249E-02
   22.6381    441.73   1.72920  3.0970E-02
   22.5397    443.66   1.72899  3.0279E-02
   22.4421    445.59   1.72899  3.0003E-02
   22.3454    447.52   1.72899  2.9687E-02
   22.2495    449.45   1.72910  2.9453E-02
   22.1544    451.38   1.72919  2.9549E-02
   22.0602    453.31   1.72904  2.9738E-02
   21.9667    455.23   1.72883  2.9640E-02
   21.8740    457.16   1.72872  2.9345E-02
   21.7821    459.09   1.72871  2.9198E-02
   21.6909    461.02   1.72868  2.9222E-02
   21.6006    462.95   1.72859  2.9003E-02
   21.5109    464.88   1.72866  2.8810E-02
   21.4220    466.81   1.72877  2.8715E-02
   21.3339    468.74   1.72886  2.8684E-02
   21.2465    470.67   1.72896  2.8664E-02
   21.1597    472.60   1.72906  2.8709E-02
   21.0737    474.53   1.72916  2.8579E-02
   20.9884    476.45   1.72942  2.8464E-02
   20.9038    478.38   1.72972  2.8622E-02
   20.8198    480.31   1.72998  2.8877E-02
   20.7365    482.24   1.73017  2.9155E-02
   20.6539    484.17   1.73030  2.9512E-02
   20.5720    486.10   1.73037  2.9779E-02
   20.4907    488.03   1.73049  3.0021E-02
   20.4100    489.96   1.73053  3.0516E-02
   20.3299    491.89   1.73048  3.0809E-02
   20.2505    493.81   1.73046  3.0937E-02
   20.1717    495.74   1.73052  3.1183E-02
   20.0936    497.67   1.73062  3.1298E-02
   20.0160    499.60   1.73080  3.1708E-02
   19.9390    501.53   1.73078  3.2280E-02
   19.8626    503.46   1.73078  3.2321E-02
   19.7868    505.39   1.73099  3.2524E-02
   19.7115    507.32   1.73125  3.3109E-02
   19.6369    509.25   1.73129  3.3786E-02
   19.5628    511.17   1.73114  3.4546E-02
   19.4892    513.10   1.73101  3.4700E-02
   19.4162    515.03   1.73107  3.5047E-02
   19.3438    516.96   1.73109  3.5640E-02
   19.2719    518.89   1.73113  3.6040E-02
   19.2005    520.82   1.73124  3.6649E-02
   19.1297    522.75   1.73124  3.7368E-02
   19.0593    524.68   1.73126  3.8162E-02
   18.9895    526.61   1.73113  3.9029E-02
   18.9202    528.54   1.73090  3.9979E-02
   18.8514    530.46   1.73054  4.0848E-02
   18.7831    532.39   1.73019  4.1584E-02
   18.7153    534.32   1.72989  4.2413E-02
   18.6480    536.25   1.72936  4.3743E-02
   18.5811    538.18   1.72853  4.4889E-02
   18.5148    540.11   1.72744  4.5670E-02
   18.4489    542.04   1.72628  4.6420E-02
   18.3835    543.97   1.72513  4.6458E-02
   18.3185    545.90   1.72434  4.6474E-02
   18.2540    547.83   1.72352  4.6966E-02
   18.1899    549.76   1.72261  4.7269E-02
   18.1264    551.68   1.72157  4.7346E-02
   18.0632    553.61   1.72068  4.7419E-02
   18.0005    555.54   1.71981  4.7131E-02
   17.9382    557.47   1.71920  4.6931E-02
   17.8763    559.40   1.71864  4.7004E-02
   17.8149    561.33   1.71795  4.7035E-02
   17.7539    563.26   1.71737  4.6893E-02
   17.6933    565.19   1.71673  4.7158E-02
   17.6331    567.12   1.71595  4.7116E-02
   17.5733    569.05   1.71532  4.6850E-02
   17.5140    570.97   1.71467  4.6777E-02
   17.4550    572.90   1.71406  4.6723E-02
   17.3964    574.83   1.71342  4.6458E-02
   17.3382    576.76   1.71294  4.6104E-02
   17.2804    578.69   1.71253  4.6027E-02
   17.2230    580.62   1.71209  4.5943E-02
   17.1660    582.55   1.71157  4.6027E-02
   17.1094    584.47   1.71086  4.6066E-02
   17.0531    586.40   1.71015  4.5812E-02
   16.9972    588.33   1.70954  4.5247E-02
   16.9416    590.26   1.70922  4.4809E-02
   16.8864    592.19   1.70882  4.4774E-02
   16.8316    594.12   1.70836  4.4370E-02
   16.7771    596.05   1.70798  4.4232E-02
   16.7230    597.98   1.70743  4.3947E-02
   16.6692    599.91   1.70711  4.3228E-02
   16.6158    601.84   1.70701  4.2744E-02
   16.5627    603.77   1.70696  4.2671E-02
   16.5100    605.69   1.70669  4.2586E-02
   16.4576    607.62   1.70648  4.2263E-02
   16.4055    609.55   1.70641  4.1971E-02
   16.3537    611.48   1.70636  4.2098E-02
   16.3023    613.41   1.70599  4.2325E-02
   16.2512    615.34   1.70556  4.2105E-02
   16.2004    617.27   1.70531  4.1755E-02
   16.1500    619.20   1.70510  4.1502E-02
   16.0998    621.13   1.70502  4.1440E-02
   16.0499    623.06   1.70483  4.1521E-02
   16.0004    624.98   1.70445  4.1563E-02
   15.9512    626.91   1.70410  4.1329E-02
   15.9023    628.84   1.70382  4.1121E-02
   15.8536    630.77   1.70367  4.0963E-02
   15.8053    632.70   1.70335  4.0913E-02
   15.7572    634.63   1.70312  4.0756E-02
   15.7095    636.56   1.70283  4.0460E-02
   15.6620    638.49   1.70281  4.0227E-02
   15.6149    640.41   1.70261  4.0315E-02
   15.5680    642.34   1.70239  4.0267E-02
   15.5214    644.27   1.70217  4.0060E-02
   15.4750    646.20   1.70207  4.0083E-02
   15.4290    648.13   1.70174  4.0117E-02
   15.3832    650.06   1.70146  4.0040E-02
   15.3377    651.99   1.70115  3.9825E-02
   15.2924    653.92   1.70105  3.9589E-02
   15.2475    655.85   1.70087  3.9444E-02
   15.2027    657.78   1.70086  3.9498E-02
   15.1583    659.70   1.70065  3.9483E-02
   15.1141    661.63   1.70048  3.9660E-02
   15.0702    663.56   1.70013  3.9683E-02
   15.0265    665.49   1.69998  3.9452E-02
   14.9831    667.42   1.69987  3.9556E-02
   14.9399    669.35   1.69966  3.9937E-02
   14.8969    671.28   1.69920  4.0342E-02
   14.8542    673.21   1.69862  4.0302E-02
   14.8118    675.14   1.69817  4.0117E-02
   14.7696    677.07   1.69781  4.0290E-02
   14.7277    678.99   1.69721  4.0375E-02
   14.6859    680.93   1.69675  4.0375E-02
   14.6445    682.85   1.69596  4.0479E-02
   14.6032    684.78   1.69526  4.0296E-02
   14.5622    686.71   1.69456  3.9833E-02
   14.5214    688.64   1.69395  3.9587E-02
   14.4808    690.57   1.69333  3.9183E-02
   14.4405    692.50   1.69269  3.8624E-02
   14.4004    694.43   1.69226  3.7876E-02
   14.3605    696.35   1.69200  3.7276E-02
   14.3208    698.29   1.69173  3.6987E-02
   14.2814    700.21   1.69124  3.6551E-02
   14.2421    702.14   1.69095  3.5853E-02
   14.2031    704.07   1.69070  3.5188E-02
   14.1643    706.00   1.69058  3.4549E-02
   14.1257    707.93   1.69056  3.3984E-02
   14.0873    709.86   1.69059  3.3609E-02
   14.0492    711.78   1.69042  3.3357E-02
   14.0112    713.71   1.69029  3.2954E-02
   13.9734    715.65   1.69018  3.2527E-02
   13.9359    717.57   1.68998  3.2062E-02
   13.8985    719.50   1.68995  3.1512E-02
   13.8613    721.43   1.68999  3.1037E-02
   13.8244    723.36   1.69000  3.0570E-02
   13.7876    725.29   1.69010  3.0280E-02
   13.7510    727.22   1.69011  2.9966E-02
   13.7146    729.15   1.69019  2.9561E-02
   13.6785    731.07   1.69024  2.9224E-02
   13.6425    733.00   1.69041  2.8990E-02
   13.6067    734.93   1.69049  2.8836E-02
   13.5710    736.87   1.69060  2.8836E-02
   13.5356    738.79   1.69042  2.8918E-02
   13.5003    740.72   1.69017  2.8903E-02
   13.4653    742.65   1.68975  2.8534E-02
   13.4304    744.58   1.68954  2.7974E-02
   13.3957    746.51   1.68946  2.7378E-02
   13.3612    748.44   1.68951  2.6802E-02
   13.3268    750.37   1.68969  2.6473E-02
   13.2927    752.29   1.68971  2.6178E-02
   13.2587    754.22   1.68976  2.5881E-02
   13.2248    756.16   1.68987  2.5546E-02
   13.1912    758.08   1.68989  2.5193E-02
   13.1577    760.01   1.69005  2.4858E-02
   13.1244    761.94   1.69017  2.4651E-02
   13.0913    763.87   1.69023  2.4390E-02
   13.0583    765.80   1.69034  2.4154E-02
   13.0255    767.72   1.69039  2.3906E-02
   12.9928    769.66   1.69052  2.3582E-02
   12.9603    771.59   1.69066  2.3327E-02
   12.9280    773.51   1.69081  2.3112E-02
   12.8959    775.44   1.69092  2.2925E-02
   12.8639    777.37   1.69103  2.2770E-02
   12.8320    779.30   1.69115  2.2557E-02
   12.8003    781.23   1.69127  2.2342E-02
   12.7688    783.16   1.69139  2.2135E-02
   12.7374    785.09   1.69156  2.1994E-02
   12.7062    787.02   1.69164  2.1863E-02
   12.6751    788.95   1.69178  2.1681E-02
   12.6442    790.88   1.69191  2.1502E-02
   12.6135    792.80   1.69201  2.1418E-02
   12.5829    794.73   1.69209  2.1261E-02
   12.5524    796.66   1.69223  2.1073E-02
   12.5221    798.59   1.69233  2.0950E-02
   12.4919    800.52   1.69246  2.0805E-02
   12.4619    802.45   1.69256  2.0608E-02
   12.4320    804.38   1.69273  2.0417E-02
   12.4022    806.31   1.69293  2.0329E-02
   12.3726    808.24   1.69307  2.0270E-02
   12.3432    810.16   1.69317  2.0160E-02
   12.3139    812.09   1.69331  2.0038E-02
   12.2847    814.02   1.69345  1.9919E-02
   12.2556    815.95   1.69363  1.9807E-02
   12.2267    817.88   1.69382  1.9679E-02
   12.1980    819.81   1.69398  1.9608E-02
   12.1693    821.74   1.69421  1.9627E-02
   12.1408    823.67   1.69436  1.9591E-02
   12.1125    825.59   1.69448  1.9530E-02
   12.0842    827.53   1.69471  1.9568E-02
   12.0561    829.46   1.69485  1.9616E-02
   12.0282    831.38   1.69492  1.9641E-02
   12.0003    833.31   1.69508  1.9693E-02
   11.9726    835.24   1.69517  1.9697E-02
   11.9450    837.17   1.69531  1.9809E-02
   11.9176    839.10   1.69527  1.9982E-02
   11.8902    841.03   1.69523  2.0083E-02
   11.8630    842.96   1.69510  1.9924E-02
   11.8359    844.89   1.69520  1.9622E-02
   11.8090    846.81   1.69533  1.9537E-02
   11.7821    848.75   1.69549  1.9671E-02
   11.7554    850.67   1.69547  1.9630E-02
   11.7288    852.60   1.69557  1.9411E-02
   11.7023    854.53   1.69580  1.9309E-02
   11.6760    856.46   1.69598  1.9257E-02
   11.6497    858.39   1.69631  1.9296E-02
   11.6236    860.32   1.69652  1.9497E-02
   11.5976    862.25   1.69667  1.9756E-02
   11.5717    864.18   1.69677  2.0006E-02
   11.5460    866.10   1.69672  2.0237E-02
   11.5203    868.03   1.69675  2.0462E-02
   11.4948    869.96   1.69658  2.0700E-02
   11.4693    871.89   1.69647  2.0856E-02
   11.4440    873.82   1.69627  2.0857E-02
   11.4188    875.75   1.69615  2.0842E-02
   11.3937    877.68   1.69602  2.0883E-02
   11.3687    879.61   1.69586  2.0879E-02
   11.3438    881.54   1.69572  2.0780E-02
   11.3191    883.46   1.69553  2.0612E-02
   11.2944    885.39   1.69554  2.0387E-02
   11.2699    887.32   1.69548  2.0160E-02
   11.2454    889.25   1.69562  1.9963E-02
   11.2211    891.18   1.69568  1.9806E-02
   11.1968    893.11   1.69588  1.9754E-02
   11.1727    895.04   1.69596  1.9717E-02
   11.1487    896.97   1.69608  1.9654E-02
   11.1248    898.89   1.69619  1.9644E-02
   11.1009    900.83   1.69636  1.9684E-02
   11.0772    902.76   1.69643  1.9704E-02
   11.0536    904.68   1.69652  1.9768E-02
   11.0301    906.61   1.69658  1.9805E-02
   11.0067    908.54   1.69663  1.9796E-02
   10.9833    910.47   1.69680  1.9839E-02
   10.9601    912.40   1.69686  1.9946E-02
   10.9370    914.33   1.69692  2.0027E-02
   10.9140    916.25   1.69694  2.0096E-02
   10.8910    918.19   1.69706  2.0192E-02
   10.8682    920.12   1.69707  2.0300E-02
   10.8455    922.04   1.69706  2.0419E-02
   10.8228    923.98   1.69710  2.0562E-02
   10.8003    925.90   1.69699  2.0613E-02
   10.7778    927.83   1.69707  2.0610E-02
   10.7555    929.76   1.69702  2.0711E-02
   10.7332    931.69   1.69705  2.0803E-02
   10.7110    933.62   1.69705  2.0839E-02
   10.6889    935.55   1.69705  2.0956E-02
   10.6669    937.48   1.69702  2.1064E-02
   10.6450    939.41   1.69698  2.1130E-02
   10.6232    941.34   1.69695  2.1196E-02
   10.6015    943.26   1.69692  2.1246E-02
   10.5799    945.19   1.69687  2.1279E-02
   10.5583    947.12   1.69695  2.1338E-02
   10.5369    949.05   1.69689  2.1412E-02
   10.5155    950.98   1.69693  2.1555E-02
   10.4942    952.91   1.69688  2.1721E-02
   10.4730    954.84   1.69682  2.1808E-02
   10.4519    956.76   1.69676  2.1961E-02
   10.4309    958.69   1.69660  2.2155E-02
   10.4099    960.62   1.69645  2.2272E-02
   10.3890    962.56   1.69632  2.2248E-02
   10.3683    964.48   1.69616  2.2197E-02
   10.3476    966.41   1.69613  2.2256E-02
   10.3270    968.34   1.69600  2.2308E-02
   10.3064    970.27   1.69599  2.2341E-02
   10.2860    972.20   1.69581  2.2406E-02
   10.2656    974.13   1.69573  2.2501E-02
   10.2453    976.06   1.69555  2.2561E-02
   10.2251    977.99   1.69539  2.2487E-02
   10.2050    979.91   1.69524  2.2414E-02
   10.1849    981.85   1.69524  2.2420E-02
   10.1650    983.77   1.69504  2.2388E-02
   10.1451    985.70   1.69501  2.2311E-02
   10.1253    987.63   1.69492  2.2250E-02
   10.1055    989.56   1.69496  2.2294E-02
   10.0859    991.48   1.69478  2.2333E-02
   10.0663    993.41   1.69471  2.2333E-02
   10.0468    995.34   1.69456  2.2269E-02
   10.0273    997.28   1.69457  2.2216E-02
   10.0080    999.20   1.69442  2.2153E-02
    9.9887   1001.13   1.69442  2.2120E-02
    9.9695   1003.06   1.69436  2.2102E-02
    9.9504   1004.98   1.69426  2.2069E-02
    9.9313   1006.92   1.69423  2.2044E-02
    9.9123   1008.85   1.69417  2.1993E-02
    9.8934   1010.77   1.69408  2.1945E-02
    9.8745   1012.71   1.69412  2.1902E-02
    9.8558   1014.63   1.69401  2.1836E-02
    9.8371   1016.56   1.69399  2.1802E-02
    9.8184   1018.50   1.69405  2.1773E-02
    9.7999   1020.42   1.69395  2.1728E-02
    9.7814   1022.35   1.69400  2.1703E-02
    9.7630   1024.28   1.69394  2.1713E-02
    9.7446   1026.21   1.69396  2.1677E-02
    9.7263   1028.14   1.69397  2.1633E-02
    9.7081   1030.07   1.69399  2.1648E-02
    9.6900   1031.99   1.69394  2.1662E-02
    9.6719   1033.92   1.69399  2.1649E-02
    9.6539   1035.85   1.69396  2.1625E-02
    9.6359   1037.79   1.69411  2.1633E-02
    9.6181   1039.71   1.69405  2.1737E-02
    9.6003   1041.63   1.69407  2.1767E-02
    9.5825   1043.57   1.69416  2.1817E-02
    9.5648   1045.50   1.69417  2.1991E-02
    9.5472   1047.43   1.69414  2.2097E-02
    9.5297   1049.35   1.69406  2.2212E-02
    9.5122   1051.28   1.69400  2.2333E-02
    9.4947   1053.22   1.69403  2.2407E-02
    9.4774   1055.14   1.69387  2.2545E-02
    9.4601   1057.07   1.69381  2.2676E-02
    9.4429   1059.00   1.69363  2.2693E-02
    9.4257   1060.93   1.69361  2.2691E-02
    9.4086   1062.86   1.69357  2.2740E-02
    9.3916   1064.78   1.69348  2.2801E-02
    9.3746   1066.71   1.69344  2.2887E-02
    9.3576   1068.65   1.69348  2.2982E-02
    9.3408   1070.57   1.69335  2.3020E-02
    9.3240   1072.50   1.69335  2.3117E-02
    9.3072   1074.44   1.69345  2.3310E-02
    9.2906   1076.36   1.69327  2.3487E-02
    9.2739   1078.29   1.69337  2.3786E-02
    9.2574   1080.22   1.69311  2.4133E-02
    9.2409   1082.15   1.69287  2.4373E-02
    9.2244   1084.08   1.69272  2.4600E-02
    9.2081   1086.00   1.69228  2.4708E-02
    9.1917   1087.94   1.69225  2.4789E-02
    9.1755   1089.86   1.69193  2.5014E-02
    9.1593   1091.79   1.69165  2.5289E-02
    9.1431   1093.72   1.69132  2.5535E-02
    9.1270   1095.65   1.69088  2.5663E-02
    9.1110   1097.57   1.69042  2.5612E-02
    9.0950   1099.51   1.69014  2.5620E-02
    9.0791   1101.43   1.68974  2.5675E-02
    9.0632   1103.36   1.68942  2.5752E-02
    9.0474   1105.29   1.68895  2.5747E-02
    9.0316   1107.22   1.68859  2.5775E-02
    9.0159   1109.15   1.68806  2.5747E-02
    9.0002   1111.09   1.68764  2.5616E-02
    8.9846   1113.02   1.68720  2.5423E-02
    8.9691   1114.94   1.68675  2.5187E-02
    8.9536   1116.87   1.68646  2.4994E-02
    8.9382   1118.79   1.68602  2.4840E-02
    8.9228   1120.72   1.68568  2.4644E-02
    8.9075   1122.65   1.68520  2.4364E-02
    8.8922   1124.58   1.68482  2.4008E-02
    8.8769   1126.52   1.68462  2.3614E-02
    8.8618   1128.44   1.68422  2.3298E-02
    8.8467   1130.36   1.68393  2.2920E-02
    8.8316   1132.30   1.68375  2.2460E-02
    8.8166   1134.22   1.68352  2.2059E-02
    8.8016   1136.16   1.68342  2.1677E-02
    8.7867   1138.08   1.68322  2.1319E-02
    8.7718   1140.02   1.68312  2.0975E-02
    8.7570   1141.94   1.68291  2.0569E-02
    8.7422   1143.88   1.68285  2.0119E-02
    8.7275   1145.80   1.68274  1.9663E-02
    8.7128   1147.74   1.68278  1.9246E-02
    8.6982   1149.66   1.68274  1.8844E-02
    8.6836   1151.60   1.68283  1.8475E-02
    8.6691   1153.52   1.68289  1.8130E-02
    8.6547   1155.44   1.68287  1.7818E-02
    8.6402   1157.38   1.68301  1.7531E-02
    8.6258   1159.31   1.68307  1.7218E-02
    8.6115   1161.24   1.68312  1.6881E-02
    8.5972   1163.17   1.68329  1.6632E-02
    8.5830   1165.09   1.68333  1.6435E-02
    8.5688   1167.02   1.68346  1.6179E-02
    8.5547   1168.95   1.68353  1.5928E-02
    8.5406   1170.88   1.68364  1.5727E-02
    8.5265   1172.81   1.68378  1.5540E-02
    8.5125   1174.74   1.68389  1.5353E-02
    8.4986   1176.66   1.68395  1.5181E-02
    8.4847   1178.59   1.68404  1.5008E-02
    8.4708   1180.53   1.68418  1.4820E-02
    8.4570   1182.45   1.68425  1.4664E-02
    8.4432   1184.39   1.68439  1.4520E-02
    8.4295   1186.31   1.68445  1.4380E-02
    8.4158   1188.24   1.68459  1.4240E-02
    8.4022   1190.16   1.68465  1.4112E-02
    8.3886   1192.09   1.68475  1.3994E-02
    8.3750   1194.03   1.68487  1.3877E-02
    8.3615   1195.96   1.68492  1.3766E-02
    8.3480   1197.89   1.68504  1.3660E-02
    8.3346   1199.82   1.68508  1.3557E-02
    8.3212   1201.75   1.68519  1.3447E-02
    8.3079   1203.67   1.68523  1.3333E-02
    8.2946   1205.60   1.68535  1.3229E-02
    8.2814   1207.53   1.68540  1.3129E-02
    8.2682   1209.45   1.68548  1.3037E-02
    8.2550   1211.39   1.68559  1.2951E-02
    8.2419   1213.31   1.68562  1.2857E-02
    8.2288   1215.24   1.68569  1.2763E-02
    8.2157   1217.18   1.68580  1.2664E-02
    8.2027   1219.11   1.68588  1.2581E-02
    8.1898   1221.03   1.68591  1.2505E-02
    8.1769   1222.96   1.68598  1.2423E-02
    8.1640   1224.89   1.68609  1.2351E-02
    8.1512   1226.81   1.68611  1.2273E-02
    8.1384   1228.74   1.68617  1.2172E-02
    8.1256   1230.68   1.68629  1.2085E-02
    8.1129   1232.60   1.68632  1.2033E-02
    8.1002   1234.54   1.68642  1.1963E-02
    8.0876   1236.46   1.68645  1.1880E-02
    8.0750   1238.39   1.68652  1.1806E-02
    8.0624   1240.33   1.68662  1.1738E-02
    8.0499   1242.25   1.68665  1.1669E-02
    8.0374   1244.18   1.68675  1.1599E-02
    8.0250   1246.11   1.68678  1.1537E-02
    8.0126   1248.03   1.68684  1.1476E-02
    8.0002   1249.97   1.68694  1.1410E-02
    7.9879   1251.89   1.68697  1.1340E-02
    7.9756   1253.82   1.68704  1.1273E-02
    7.9633   1255.76   1.68715  1.1219E-02
    7.9511   1257.69   1.68722  1.1171E-02
    7.9390   1259.60   1.68721  1.1121E-02
    7.9268   1261.54   1.68734  1.1077E-02
    7.9147   1263.47   1.68736  1.1032E-02
    7.9026   1265.41   1.68745  1.0983E-02
    7.8906   1267.33   1.68747  1.0932E-02
    7.8786   1269.26   1.68756  1.0888E-02
    7.8667   1271.18   1.68758  1.0821E-02
    7.8548   1273.11   1.68765  1.0765E-02
    7.8429   1275.04   1.68771  1.0721E-02
    7.8310   1276.98   1.68780  1.0680E-02
    7.8192   1278.90   1.68782  1.0638E-02
    7.8074   1280.84   1.68791  1.0598E-02
    7.7957   1282.76   1.68792  1.0553E-02
    7.7840   1284.69   1.68797  1.0501E-02
    7.7723   1286.62   1.68806  1.0456E-02
    7.7607   1288.54   1.68808  1.0411E-02
    7.7491   1290.47   1.68813  1.0367E-02
    7.7375   1292.41   1.68822  1.0311E-02
    7.7260   1294.33   1.68825  1.0262E-02
    7.7145   1296.26   1.68831  1.0223E-02
    7.7030   1298.20   1.68840  1.0185E-02
    7.6916   1300.12   1.68842  1.0137E-02
    7.6802   1302.05   1.68848  1.0087E-02
    7.6688   1303.98   1.68857  1.0054E-02
    7.6575   1305.91   1.68859  1.0021E-02
    7.6462   1307.84   1.68868  9.9822E-03
    7.6350   1309.76   1.68867  9.9273E-03
    7.6237   1311.70   1.68880  9.8728E-03
    7.6125   1313.63   1.68887  9.8339E-03
    7.6014   1315.55   1.68887  9.7966E-03
    7.5902   1317.49   1.68903  9.7602E-03
    7.5792   1319.40   1.68900  9.7241E-03
    7.5681   1321.34   1.68914  9.6819E-03
    7.5571   1323.26   1.68918  9.6526E-03
    7.5461   1325.19   1.68926  9.6302E-03
    7.5351   1327.12   1.68932  9.6023E-03
    7.5241   1329.06   1.68942  9.5860E-03
    7.5132   1330.99   1.68949  9.5677E-03
    7.5024   1332.91   1.68949  9.5410E-03
    7.4915   1334.85   1.68963  9.5094E-03
    7.4807   1336.77   1.68966  9.4849E-03
    7.4699   1338.71   1.68977  9.4682E-03
    7.4592   1340.63   1.68982  9.4476E-03
    7.4485   1342.55   1.68989  9.4329E-03
    7.4378   1344.48   1.68997  9.4194E-03
    7.4271   1346.42   1.69008  9.4013E-03
    7.4165   1348.34   1.69013  9.4045E-03
    7.4059   1350.27   1.69020  9.4119E-03
    7.3953   1352.21   1.69031  9.3892E-03
    7.3848   1354.13   1.69036  9.3881E-03
    7.3743   1356.06   1.69044  9.3926E-03
    7.3638   1357.99   1.69055  9.3794E-03
    7.3534   1359.92   1.69062  9.3798E-03
    7.3430   1361.84   1.69071  9.3984E-03
    7.3326   1363.77   1.69080  9.4109E-03
    7.3222   1365.71   1.69093  9.4348E-03
    7.3119   1367.63   1.69100  9.4686E-03
    7.3016   1369.56   1.69109  9.5075E-03
    7.2913   1371.50   1.69123  9.5588E-03
    7.2811   1373.42   1.69128  9.6398E-03
    7.2709   1375.35   1.69137  9.7085E-03
    7.2607   1377.28   1.69144  9.7895E-03
    7.2505   1379.22   1.69154  9.8861E-03
    7.2404   1381.14   1.69156  9.9713E-03
    7.2303   1383.07   1.69162  1.0060E-02
    7.2202   1385.00   1.69170  1.0183E-02
    7.2102   1386.92   1.69169  1.0308E-02
    7.2002   1388.85   1.69169  1.0417E-02
    7.1902   1390.78   1.69168  1.0522E-02
    7.1802   1392.72   1.69171  1.0625E-02
    7.1703   1394.64   1.69164  1.0718E-02
    7.1604   1396.57   1.69160  1.0802E-02
    7.1505   1398.50   1.69160  1.0877E-02
    7.1407   1400.42   1.69150  1.0934E-02
    7.1309   1402.35   1.69146  1.0968E-02
    7.1211   1404.28   1.69142  1.0982E-02
    7.1113   1406.21   1.69139  1.1007E-02
    7.1015   1408.15   1.69142  1.1036E-02
    7.0918   1410.08   1.69141  1.1075E-02
    7.0822   1411.99   1.69130  1.1117E-02
    7.0725   1413.93   1.69138  1.1150E-02
    7.0629   1415.85   1.69132  1.1204E-02
    7.0533   1417.78   1.69129  1.1280E-02
    7.0437   1419.71   1.69125  1.1331E-02
    7.0341   1421.65   1.69124  1.1390E-02
    7.0246   1423.57   1.69114  1.1437E-02
    7.0151   1425.50   1.69109  1.1463E-02
    7.0056   1427.43   1.69103  1.1514E-02
    6.9961   1429.37   1.69100  1.1548E-02
    6.9867   1431.29   1.69089  1.1557E-02
    6.9773   1433.22   1.69083  1.1566E-02
    6.9679   1435.15   1.69081  1.1606E-02
    6.9586   1437.07   1.69063  1.1603E-02
    6.9492   1439.01   1.69066  1.1583E-02
    6.9399   1440.94   1.69060  1.1578E-02
    6.9307   1442.86   1.69044  1.1579E-02
    6.9214   1444.79   1.69046  1.1562E-02
    6.9122   1446.72   1.69035  1.1522E-02
    6.9030   1448.65   1.69031  1.1484E-02
    6.8938   1450.58   1.69026  1.1474E-02
    6.8846   1452.52   1.69025  1.1439E-02
    6.8755   1454.44   1.69017  1.1393E-02
    6.8664   1456.37   1.69013  1.1382E-02
    6.8573   1458.30   1.69014  1.1355E-02
    6.8483   1460.22   1.69000  1.1315E-02
    6.8392   1462.16   1.69007  1.1270E-02
    6.8302   1464.09   1.68999  1.1253E-02
    6.8212   1466.02   1.69001  1.1232E-02
    6.8123   1467.93   1.68989  1.1211E-02
    6.8033   1469.87   1.68995  1.1188E-02
    6.7944   1471.80   1.68986  1.1162E-02
    6.7855   1473.73   1.68988  1.1139E-02
    6.7767   1475.64   1.68974  1.1121E-02
    6.7678   1477.59   1.68980  1.1088E-02
    6.7590   1479.51   1.68971  1.1040E-02
    6.7502   1481.44   1.68969  1.1018E-02
    6.7414   1483.37   1.68964  1.0998E-02
    6.7326   1485.31   1.68964  1.0957E-02
    6.7239   1487.23   1.68956  1.0908E-02
    6.7152   1489.16   1.68953  1.0865E-02
    6.7065   1491.09   1.68949  1.0823E-02
    6.6978   1493.03   1.68951  1.0769E-02
    6.6892   1494.95   1.68943  1.0725E-02
    6.6806   1496.87   1.68940  1.0673E-02
    6.6720   1498.80   1.68938  1.0608E-02
    6.6634   1500.74   1.68941  1.0540E-02
    6.6549   1502.65   1.68931  1.0499E-02
    6.6463   1504.60   1.68938  1.0476E-02
    6.6378   1506.52   1.68930  1.0423E-02
    6.6293   1508.45   1.68933  1.0335E-02
    6.6209   1510.37   1.68923  1.0264E-02
    6.6124   1512.31   1.68933  1.0209E-02
    6.6040   1514.23   1.68928  1.0164E-02
    6.5956   1516.16   1.68928  1.0113E-02
    6.5872   1518.10   1.68933  1.0061E-02
    6.5789   1520.01   1.68924  1.0013E-02
    6.5705   1521.95   1.68933  9.9616E-03
    6.5622   1523.88   1.68928  9.9117E-03
    6.5539   1525.81   1.68929  9.8536E-03
    6.5456   1527.74   1.68935  9.7978E-03
    6.5374   1529.66   1.68927  9.7506E-03
    6.5291   1531.60   1.68938  9.7048E-03
    6.5209   1533.53   1.68934  9.6659E-03
    6.5127   1535.46   1.68941  9.6211E-03
    6.5046   1537.37   1.68934  9.5801E-03
    6.4964   1539.31   1.68944  9.5574E-03
    6.4883   1541.24   1.68940  9.5249E-03
    6.4802   1543.16   1.68941  9.4901E-03
    6.4721   1545.09   1.68942  9.4467E-03
    6.4640   1547.03   1.68949  9.3972E-03
    6.4560   1548.95   1.68942  9.3707E-03
    6.4479   1550.89   1.68952  9.3434E-03
    6.4399   1552.82   1.68949  9.3194E-03
    6.4319   1554.75   1.68955  9.2864E-03
    6.4240   1556.66   1.68947  9.2514E-03
    6.4160   1558.60   1.68957  9.2251E-03
    6.4081   1560.52   1.68954  9.1834E-03
    6.4002   1562.45   1.68956  9.1454E-03
    6.3923   1564.38   1.68959  9.1111E-03
    6.3844   1566.32   1.68961  9.0846E-03
    6.3765   1568.26   1.68967  9.0598E-03
    6.3687   1570.18   1.68964  9.0278E-03
    6.3609   1572.10   1.68968  8.9834E-03
    6.3531   1574.03   1.68971  8.9623E-03
    6.3453   1575.97   1.68979  8.9555E-03
    6.3376   1577.88   1.68973  8.9353E-03
    6.3298   1579.83   1.68985  8.9248E-03
    6.3221   1581.75   1.68983  8.9321E-03
    6.3144   1583.68   1.68985  8.9310E-03
    6.3067   1585.62   1.68991  8.9115E-03
    6.2991   1587.53   1.68985  8.9156E-03
    6.2914   1589.47   1.68996  8.9349E-03
    6.2838   1591.39   1.68991  8.9463E-03
    6.2762   1593.32   1.68992  8.9468E-03
    6.2686   1595.25   1.68991  8.9406E-03
    6.2610   1597.19   1.68996  8.9372E-03
    6.2535   1599.10   1.68987  8.9353E-03
    6.2459   1601.05   1.68996  8.9280E-03
    6.2384   1602.98   1.68991  8.9248E-03
    6.2309   1604.90   1.68991  8.9147E-03
    6.2234   1606.84   1.68995  8.9037E-03
    6.2160   1608.75   1.68986  8.8973E-03
    6.2085   1610.70   1.68994  8.8905E-03
    6.2011   1612.62   1.68989  8.8726E-03
    6.1937   1614.54   1.68989  8.8630E-03
    6.1863   1616.48   1.68994  8.8568E-03
    6.1790   1618.38   1.68984  8.8424E-03
    6.1716   1620.33   1.68993  8.8381E-03
    6.1643   1622.24   1.68982  8.8328E-03
    6.1569   1624.19   1.68990  8.8136E-03
    6.1496   1626.12   1.68984  8.7996E-03
    6.1423   1628.05   1.68988  8.7884E-03
    6.1351   1629.97   1.68978  8.7673E-03
    6.1278   1631.91   1.68986  8.7444E-03
    6.1206   1633.83   1.68980  8.7385E-03
    6.1134   1635.75   1.68978  8.7184E-03
    6.1062   1637.68   1.68977  8.6728E-03
    6.0990   1639.61   1.68976  8.6414E-03
    6.0918   1641.55   1.68980  8.6122E-03
    6.0847   1643.47   1.68970  8.5893E-03
    6.0775   1645.41   1.68978  8.5595E-03
    6.0704   1647.34   1.68973  8.5069E-03
    6.0633   1649.27   1.68974  8.4606E-03
    6.0562   1651.20   1.68980  8.4556E-03
    6.0492   1653.11   1.68970  8.4428E-03
    6.0421   1655.05   1.68978  8.3972E-03
    6.0351   1656.97   1.68974  8.3574E-03
    6.0281   1658.90   1.68975  8.3242E-03
    6.0211   1660.83   1.68976  8.2942E-03
    6.0141   1662.76   1.68976  8.2629E-03
    6.0071   1664.70   1.68982  8.2363E-03
    6.0002   1666.61   1.68973  8.2164E-03
    5.9932   1668.56   1.68983  8.1885E-03
    5.9863   1670.48   1.68979  8.1567E-03
    5.9794   1672.41   1.68980  8.1164E-03
    5.9725   1674.34   1.68981  8.0972E-03
    5.9656   1676.28   1.68987  8.0702E-03
    5.9588   1678.19   1.68979  8.0427E-03
    5.9519   1680.14   1.68989  8.0196E-03
    5.9451   1682.06   1.68985  7.9974E-03
    5.9383   1683.98   1.68986  7.9739E-03
    5.9315   1685.91   1.68987  7.9391E-03
    5.9247   1687.85   1.68993  7.9205E-03
    5.9180   1689.76   1.68985  7.9052E-03
    5.9112   1691.70   1.68995  7.8761E-03
    5.9045   1693.62   1.68991  7.8541E-03
    5.8978   1695.55   1.68992  7.8248E-03
    5.8911   1697.48   1.68994  7.7898E-03
    5.8844   1699.41   1.68995  7.7821E-03
    5.8777   1701.35   1.69001  7.7526E-03
    5.8711   1703.26   1.68993  7.7338E-03
    5.8644   1705.20   1.69003  7.7135E-03
    5.8578   1707.13   1.68999  7.6896E-03
    5.8512   1709.05   1.69001  7.6612E-03
    5.8446   1710.98   1.69003  7.6356E-03
    5.8380   1712.92   1.69004  7.6163E-03
    5.8314   1714.85   1.69010  7.5920E-03
    5.8249   1716.77   1.69003  7.5770E-03
    5.8183   1718.72   1.69013  7.5540E-03
    5.8118   1720.64   1.69010  7.5296E-03
    5.8053   1722.56   1.69011  7.5119E-03
    5.7988   1724.49   1.69013  7.4854E-03
    5.7923   1726.43   1.69019  7.4623E-03
    5.7859   1728.34   1.69013  7.4409E-03
    5.7794   1730.28   1.69024  7.4177E-03
    5.7730   1732.20   1.69021  7.4153E-03
    5.7666   1734.12   1.69023  7.3982E-03
    5.7602   1736.05   1.69025  7.3705E-03
    5.7538   1737.98   1.69028  7.3606E-03
    5.7474   1739.92   1.69030  7.3544E-03
    5.7410   1741.86   1.69036  7.3440E-03
    5.7347   1743.77   1.69029  7.3282E-03
    5.7283   1745.72   1.69040  7.3185E-03
    5.7220   1747.64   1.69037  7.3147E-03
    5.7157   1749.57   1.69039  7.3062E-03
    5.7094   1751.50   1.69040  7.2991E-03
    5.7031   1753.43   1.69047  7.2852E-03
    5.6969   1755.34   1.69039  7.2788E-03
    5.6906   1757.28   1.69051  7.2651E-03
    5.6844   1759.20   1.69044  7.2630E-03
    5.6781   1761.15   1.69054  7.2683E-03
    5.6719   1763.08   1.69050  7.2570E-03
    5.6657   1765.01   1.69052  7.2487E-03
    5.6595   1766.94   1.69059  7.2476E-03
    5.6534   1768.85   1.69052  7.2427E-03
    5.6472   1770.79   1.69063  7.2517E-03
    5.6411   1772.70   1.69055  7.2630E-03
    5.6349   1774.65   1.69065  7.2743E-03
    5.6288   1776.58   1.69061  7.2957E-03
    5.6227   1778.50   1.69060  7.3057E-03
    5.6166   1780.44   1.69059  7.2997E-03
    5.6105   1782.37   1.69063  7.2946E-03
    5.6045   1784.28   1.69053  7.2923E-03
    5.5984   1786.22   1.69061  7.2788E-03
    5.5924   1788.14   1.69056  7.2545E-03
    5.5864   1790.06   1.69052  7.2258E-03
    5.5803   1792.02   1.69062  7.2179E-03
    5.5743   1793.95   1.69057  7.2100E-03
    5.5683   1795.88   1.69063  7.1917E-03
    5.5624   1797.79   1.69054  7.1776E-03
    5.5564   1799.73   1.69065  7.1609E-03
    5.5505   1801.64   1.69057  7.1513E-03
    5.5445   1803.59   1.69067  7.1464E-03
    5.5386   1805.51   1.69062  7.1378E-03
    5.5327   1807.44   1.69064  7.1323E-03
    5.5268   1809.37   1.69064  7.1306E-03
    5.5209   1811.30   1.69064  7.1180E-03
    5.5150   1813.24   1.69069  7.1071E-03
    5.5092   1815.15   1.69060  7.1032E-03
    5.5033   1817.09   1.69069  7.0893E-03
    5.4975   1819.01   1.69064  7.0699E-03
    5.4917   1820.93   1.69066  7.0579E-03
    5.4859   1822.85   1.69066  7.0562E-03
    5.4801   1824.78   1.69066  7.0374E-03
    5.4743   1826.72   1.69066  7.0169E-03
    5.4685   1828.66   1.69066  7.0032E-03
    5.4627   1830.60   1.69072  6.9838E-03
    5.4570   1832.51   1.69064  6.9699E-03
    5.4512   1834.46   1.69074  6.9594E-03
    5.4455   1836.38   1.69069  6.9445E-03
    5.4398   1838.30   1.69071  6.9255E-03
    5.4341   1840.23   1.69072  6.9054E-03
    5.4284   1842.16   1.69073  6.8939E-03
    5.4227   1844.10   1.69079  6.8922E-03
    5.4171   1846.01   1.69071  6.8832E-03
    5.4114   1847.95   1.69081  6.8708E-03
    5.4058   1849.86   1.69073  6.8575E-03
    5.4001   1851.82   1.69083  6.8490E-03
    5.3945   1853.74   1.69079  6.8347E-03
    5.3889   1855.67   1.69081  6.8240E-03
    5.3833   1857.60   1.69081  6.8150E-03
    5.3777   1859.53   1.69088  6.8048E-03
    5.3722   1861.43   1.69080  6.7994E-03
    5.3666   1863.38   1.69085  6.7917E-03
    5.3610   1865.32   1.69091  6.7877E-03
    5.3555   1867.24   1.69087  6.7898E-03
    5.3500   1869.16   1.69088  6.7834E-03
    5.3445   1871.08   1.69088  6.7725E-03
    5.3390   1873.01   1.69089  6.7584E-03
    5.3335   1874.94   1.69091  6.7490E-03
    5.3280   1876.88   1.69091  6.7518E-03
    5.3225   1878.82   1.69097  6.7480E-03
    5.3171   1880.72   1.69088  6.7390E-03
    5.3116   1882.67   1.69098  6.7390E-03
    5.3062   1884.59   1.69089  6.7249E-03
    5.3007   1886.54   1.69099  6.7072E-03
    5.2953   1888.47   1.69096  6.7050E-03
    5.2899   1890.39   1.69096  6.7067E-03
    5.2845   1892.33   1.69102  6.6978E-03
    5.2792   1894.23   1.69094  6.6875E-03
    5.2738   1896.17   1.69099  6.6866E-03
    5.2684   1898.11   1.69104  6.6858E-03
    5.2631   1900.02   1.69095  6.6749E-03
    5.2577   1901.97   1.69105  6.6681E-03
    5.2524   1903.89   1.69101  6.6644E-03
    5.2471   1905.81   1.69102  6.6574E-03
    5.2418   1907.74   1.69103  6.6525E-03
    5.2365   1909.67   1.69103  6.6446E-03
    5.2312   1911.61   1.69103  6.6399E-03
    5.2259   1913.55   1.69109  6.6356E-03
    5.2207   1915.45   1.69100  6.6298E-03
    5.2154   1917.40   1.69110  6.6183E-03
    5.2102   1919.31   1.69106  6.6082E-03
    5.2050   1921.23   1.69102  6.6097E-03
    5.1997   1923.19   1.69112  6.6031E-03
    5.1945   1925.11   1.69107  6.5961E-03
    5.1893   1927.04   1.69107  6.5875E-03
    5.1841   1928.98   1.69113  6.5741E-03
    5.1790   1930.87   1.69105  6.5696E-03
    5.1738   1932.82   1.69110  6.5724E-03
    5.1686   1934.76   1.69114  6.5623E-03
    5.1635   1936.67   1.69105  6.5448E-03
    5.1583   1938.62   1.69116  6.5341E-03
    5.1532   1940.54   1.69112  6.5350E-03
    5.1481   1942.46   1.69113  6.5341E-03
    5.1430   1944.39   1.69113  6.5254E-03
    5.1379   1946.32   1.69114  6.5102E-03
    5.1328   1948.25   1.69114  6.5029E-03
    5.1277   1950.19   1.69120  6.5046E-03
    5.1227   1952.10   1.69111  6.4955E-03
    5.1176   1954.04   1.69122  6.4944E-03
    5.1126   1955.95   1.69112  6.4918E-03
    5.1075   1957.91   1.69122  6.4822E-03
    5.1025   1959.82   1.69117  6.4726E-03
    5.0975   1961.75   1.69118  6.4621E-03
    5.0925   1963.67   1.69119  6.4517E-03
    5.0875   1965.60   1.69120  6.4457E-03
    5.0825   1967.54   1.69120  6.4459E-03
    5.0775   1969.47   1.69120  6.4365E-03
    5.0725   1971.41   1.69126  6.4273E-03
    5.0676   1973.32   1.69117  6.4218E-03
    5.0626   1975.27   1.69128  6.4119E-03
    5.0577   1977.18   1.69124  6.4066E-03
    5.0528   1979.10   1.69120  6.4064E-03
    5.0478   1981.06   1.69130  6.4027E-03
    5.0429   1982.99   1.69125  6.4000E-03
    5.0380   1984.91   1.69126  6.3970E-03
    5.0331   1986.85   1.69132  6.3869E-03
    5.0283   1988.74   1.69123  6.3807E-03
    5.0234   1990.68   1.69128  6.3820E-03
    5.0185   1992.63   1.69133  6.3780E-03
    5.0137   1994.53   1.69124  6.3709E-03
    5.0088   1996.49   1.69134  6.3613E-03
    5.0040   1998.40   1.69130  6.3568E-03
    4.9992   2000.32   1.69126  6.3585E-03
    4.9943   2002.28   1.69135  6.3538E-03
    4.9895   2004.21   1.69136  6.3474E-03
    4.9848   2006.10   1.69127  6.3451E-03
    4.9800   2008.03   1.69133  6.3320E-03
    4.9752   2009.97   1.69133  6.3258E-03
    4.9704   2011.91   1.69138  6.3265E-03
    4.9657   2013.81   1.69129  6.3188E-03
    4.9609   2015.76   1.69140  6.3156E-03
    4.9562   2017.67   1.69130  6.3139E-03
    4.9514   2019.63   1.69140  6.3145E-03
    4.9467   2021.55   1.69135  6.3085E-03
    4.9420   2023.47   1.69136  6.3030E-03
    4.9373   2025.40   1.69136  6.3043E-03
    4.9326   2027.33   1.69136  6.2964E-03
    4.9279   2029.26   1.69137  6.2831E-03
    4.9232   2031.20   1.69137  6.2786E-03
    4.9185   2033.14   1.69143  6.2763E-03
    4.9139   2035.04   1.69133  6.2720E-03
    4.9092   2036.99   1.69144  6.2675E-03
    4.9046   2038.90   1.69134  6.2658E-03
    4.8999   2040.86   1.69144  6.2577E-03
    4.8953   2042.78   1.69139  6.2494E-03
    4.8907   2044.70   1.69140  6.2468E-03
    4.8861   2046.62   1.69140  6.2419E-03
    4.8815   2048.55   1.69140  6.2282E-03
    4.8769   2050.48   1.69141  6.2177E-03
    4.8723   2052.42   1.69142  6.2113E-03
    4.8677   2054.36   1.69148  6.2122E-03
    4.8632   2056.26   1.69138  6.2171E-03
    4.8586   2058.21   1.69148  6.2118E-03
    4.8541   2060.11   1.69138  6.1994E-03
    4.8495   2062.07   1.69149  6.1960E-03
    4.8450   2063.98   1.69144  6.1945E-03
    4.8405   2065.90   1.69145  6.1874E-03
    4.8360   2067.82   1.69139  6.1778E-03
    4.8314   2069.79   1.69150  6.1697E-03
    4.8269   2071.72   1.69144  6.1599E-03
    4.8224   2073.66   1.69151  6.1487E-03
    4.8180   2075.55   1.69142  6.1402E-03
    4.8135   2077.49   1.69148  6.1445E-03
    4.8090   2079.43   1.69153  6.1432E-03
    4.8046   2081.34   1.69143  6.1359E-03
    4.8001   2083.29   1.69154  6.1291E-03
    4.7957   2085.20   1.69144  6.1171E-03
    4.7912   2087.16   1.69155  6.1064E-03
    4.7868   2089.08   1.69151  6.1105E-03
    4.7824   2091.00   1.69152  6.1114E-03
    4.7780   2092.93   1.69152  6.1043E-03
    4.7736   2094.86   1.69153  6.0979E-03
    4.7692   2096.79   1.69153  6.0945E-03
    4.7648   2098.72   1.69153  6.0896E-03
    4.7604   2100.66   1.69160  6.0889E-03
    4.7561   2102.56   1.69149  6.0913E-03
    4.7517   2104.51   1.69161  6.0872E-03
    4.7474   2106.42   1.69150  6.0864E-03
    4.7430   2108.37   1.69161  6.0817E-03
    4.7387   2110.28   1.69156  6.0774E-03
    4.7344   2112.20   1.69157  6.0800E-03
    4.7301   2114.12   1.69151  6.0744E-03
    4.7257   2116.09   1.69162  6.0594E-03
    4.7214   2118.02   1.69157  6.0509E-03
    4.7171   2119.95   1.69164  6.0567E-03
    4.7129   2121.84   1.69153  6.0654E-03
    4.7086   2123.77   1.69159  6.0554E-03
    4.7043   2125.71   1.69158  6.0426E-03
    4.7000   2127.66   1.69165  6.0345E-03
    4.6958   2129.56   1.69154  6.0366E-03
    4.6915   2131.51   1.69166  6.0379E-03
    4.6873   2133.42   1.69155  6.0257E-03
    4.6830   2135.38   1.69166  6.0233E-03
    4.6788   2137.30   1.69161  6.0280E-03
    4.6746   2139.22   1.69161  6.0199E-03
    4.6704   2141.14   1.69162  6.0101E-03
    4.6662   2143.07   1.69163  6.0092E-03
    4.6620   2145.00   1.69163  6.0118E-03
    4.6578   2146.94   1.69163  6.0127E-03
    4.6536   2148.87   1.69162  6.0039E-03
    4.6494   2150.82   1.69168  5.9975E-03
    4.6453   2152.71   1.69158  5.9964E-03
    4.6411   2154.66   1.69169  5.9932E-03
    4.6370   2156.57   1.69158  5.9800E-03
    4.6328   2158.52   1.69169  5.9678E-03
    4.6287   2160.43   1.69165  5.9667E-03
    4.6246   2162.35   1.69160  5.9614E-03
    4.6204   2164.31   1.69171  5.9571E-03
    4.6163   2166.24   1.69166  5.9552E-03
    4.6122   2168.16   1.69167  5.9475E-03
    4.6081   2170.09   1.69167  5.9441E-03
    4.6040   2172.02   1.69168  5.9415E-03
    4.5999   2173.96   1.69174  5.9437E-03
    4.5959   2175.85   1.69163  5.9458E-03
    4.5918   2177.80   1.69168  5.9362E-03
    4.5877   2179.74   1.69174  5.9264E-03
    4.5837   2181.64   1.69163  5.9191E-03
    4.5796   2183.60   1.69175  5.9146E-03
    4.5756   2185.51   1.69171  5.9146E-03
    4.5716   2187.42   1.69166  5.9103E-03
    4.5675   2189.38   1.69177  5.9116E-03
    4.5635   2191.30   1.69171  5.9138E-03
    4.5595   2193.22   1.69172  5.9061E-03
    4.5555   2195.15   1.69173  5.9007E-03
    4.5515   2197.08   1.69173  5.9014E-03
    4.5475   2199.01   1.69173  5.9029E-03
    4.5435   2200.95   1.69173  5.8967E-03
    4.5395   2202.89   1.69173  5.8922E-03
    4.5355   2204.83   1.69179  5.8877E-03
    4.5316   2206.73   1.69168  5.8794E-03
    4.5276   2208.68   1.69180  5.8766E-03
    4.5237   2210.58   1.69169  5.8738E-03
    4.5197   2212.54   1.69181  5.8695E-03
    4.5158   2214.45   1.69176  5.8642E-03
    4.5119   2216.36   1.69171  5.8567E-03
    4.5079   2218.33   1.69182  5.8604E-03
    4.5040   2220.25   1.69176  5.8576E-03
    4.5001   2222.17   1.69177  5.8503E-03
    4.4962   2224.10   1.69178  5.8488E-03
    4.4923   2226.03   1.69178  5.8510E-03
    4.4884   2227.97   1.69178  5.8488E-03
    4.4845   2229.90   1.69184  5.8445E-03
    4.4807   2231.79   1.69173  5.8369E-03
    4.4768   2233.74   1.69180  5.8326E-03
    4.4729   2235.69   1.69186  5.8341E-03
    4.4691   2237.59   1.69174  5.8347E-03
    4.4652   2239.54   1.69186  5.8307E-03
    4.4614   2241.45   1.69181  5.8279E-03
    4.4576   2243.36   1.69175  5.8315E-03
    4.4537   2245.32   1.69186  5.8247E-03
    4.4499   2247.24   1.69181  5.8200E-03
    4.4461   2249.16   1.69181  5.8168E-03
    4.4423   2251.09   1.69182  5.8125E-03
    4.4385   2253.01   1.69182  5.8087E-03
    4.4347   2254.94   1.69182  5.8027E-03
    4.4309   2256.88   1.69182  5.8018E-03
    4.4271   2258.82   1.69182  5.7971E-03
    4.4233   2260.76   1.69189  5.7858E-03
    4.4196   2262.65   1.69178  5.7845E-03
    4.4158   2264.60   1.69184  5.7834E-03
    4.4120   2266.55   1.69190  5.7845E-03
    4.4083   2268.45   1.69178  5.7856E-03
    4.4045   2270.41   1.69190  5.7766E-03
    4.4008   2272.31   1.69185  5.7676E-03
    4.3971   2274.23   1.69180  5.7649E-03
    4.3933   2276.19   1.69192  5.7589E-03
    4.3896   2278.11   1.69186  5.7567E-03
    4.3859   2280.03   1.69187  5.7552E-03
    4.3822   2281.96   1.69188  5.7546E-03
    4.3785   2283.89   1.69188  5.7604E-03
    4.3748   2285.82   1.69188  5.7578E-03
    4.3711   2287.75   1.69188  5.7561E-03
    4.3674   2289.69   1.69188  5.7514E-03
    4.3637   2291.63   1.69194  5.7392E-03
    4.3601   2293.53   1.69183  5.7356E-03
    4.3564   2295.47   1.69196  5.7337E-03
    4.3528   2297.37   1.69184  5.7313E-03
    4.3491   2299.33   1.69197  5.7341E-03
    4.3455   2301.23   1.69185  5.7360E-03
    4.3418   2303.19   1.69197  5.7318E-03
    4.3382   2305.10   1.69192  5.7294E-03
    4.3346   2307.02   1.69186  5.7253E-03
    4.3309   2308.99   1.69198  5.7247E-03
    4.3273   2310.91   1.69192  5.7277E-03
    4.3237   2312.83   1.69192  5.7264E-03
    4.3201   2314.76   1.69193  5.7211E-03
    4.3165   2316.69   1.69193  5.7142E-03
    4.3129   2318.63   1.69193  5.7053E-03
    4.3093   2320.56   1.69200  5.7040E-03
    4.3058   2322.45   1.69189  5.7085E-03
    4.3022   2324.39   1.69195  5.7134E-03
    4.2986   2326.34   1.69201  5.7070E-03
    4.2951   2328.23   1.69189  5.6980E-03
    4.2915   2330.19   1.69203  5.6967E-03
    4.2880   2332.09   1.69191  5.7029E-03
    4.2844   2334.05   1.69203  5.7144E-03
    4.2809   2335.96   1.69190  5.7187E-03
    4.2773   2337.92   1.69202  5.7036E-03
    4.2738   2339.84   1.69196  5.6974E-03
    4.2703   2341.76   1.69197  5.6931E-03
    4.2668   2343.68   1.69197  5.6931E-03
    4.2633   2345.60   1.69197  5.6967E-03
    4.2598   2347.53   1.69197  5.6899E-03
    4.2563   2349.46   1.69198  5.6899E-03
    4.2528   2351.39   1.69198  5.6933E-03
    4.2493   2353.33   1.69198  5.6856E-03
    4.2458   2355.27   1.69198  5.6754E-03
    4.2423   2357.21   1.69205  5.6801E-03
    4.2389   2359.10   1.69193  5.6877E-03
    4.2354   2361.05   1.69205  5.6860E-03
    4.2320   2362.95   1.69192  5.6839E-03
    4.2285   2364.90   1.69205  5.6768E-03
    4.2251   2366.81   1.69192  5.6655E-03
    4.2216   2368.77   1.69206  5.6595E-03
    4.2182   2370.68   1.69193  5.6640E-03
    4.2147   2372.65   1.69206  5.6689E-03
    4.2113   2374.56   1.69199  5.6664E-03
    4.2079   2376.48   1.69199  5.6553E-03
    4.2045   2378.40   1.69200  5.6422E-03
    4.2011   2380.33   1.69201  5.6454E-03
    4.1977   2382.26   1.69201  5.6446E-03
    4.1943   2384.19   1.69201  5.6356E-03
    4.1909   2386.12   1.69202  5.6337E-03
    4.1875   2388.06   1.69202  5.6320E-03
    4.1841   2390.00   1.69202  5.6256E-03
    4.1807   2391.94   1.69209  5.6226E-03
    4.1774   2393.83   1.69197  5.6243E-03
    4.1740   2395.78   1.69211  5.6303E-03
    4.1707   2397.68   1.69197  5.6243E-03
    4.1673   2399.64   1.69211  5.6194E-03
    4.1640   2401.54   1.69198  5.6269E-03
    4.1606   2403.50   1.69211  5.6288E-03
    4.1573   2405.41   1.69205  5.6202E-03
    4.1540   2407.32   1.69199  5.6145E-03
    4.1506   2409.29   1.69212  5.6177E-03
    4.1473   2411.21   1.69206  5.6200E-03
    4.1440   2413.13   1.69206  5.6151E-03
    4.1407   2415.05   1.69207  5.6055E-03
    4.1374   2416.98   1.69208  5.6113E-03
    4.1341   2418.91   1.69208  5.6213E-03
    4.1308   2420.84   1.69208  5.6187E-03
    4.1275   2422.77   1.69208  5.6158E-03
    4.1242   2424.71   1.69207  5.6160E-03
    4.1209   2426.65   1.69214  5.6160E-03
    4.1177   2428.54   1.69201  5.6027E-03
    4.1144   2430.49   1.69208  5.5937E-03
    4.1111   2432.44   1.69216  5.5937E-03
    4.1079   2434.33   1.69203  5.5972E-03
    4.1046   2436.29   1.69217  5.6012E-03
    4.1014   2438.19   1.69203  5.6025E-03
    4.0981   2440.16   1.69217  5.6014E-03
    4.0949   2442.06   1.69210  5.5993E-03
    4.0917   2443.97   1.69204  5.5942E-03
    4.0884   2445.94   1.69217  5.5891E-03
    4.0852   2447.86   1.69211  5.5912E-03
    4.0820   2449.78   1.69212  5.5880E-03
    4.0788   2451.70   1.69213  5.5871E-03
    4.0756   2453.63   1.69213  5.5893E-03
    4.0724   2455.55   1.69214  5.5901E-03
    4.0692   2457.49   1.69214  5.5916E-03
    4.0660   2459.42   1.69214  5.5972E-03
    4.0628   2461.36   1.69215  5.5950E-03
    4.0596   2463.30   1.69215  5.5937E-03
    4.0564   2465.24   1.69222  5.6023E-03
    4.0533   2467.13   1.69209  5.6104E-03
    4.0501   2469.07   1.69215  5.6074E-03
    4.0469   2471.03   1.69222  5.6029E-03
    4.0438   2472.92   1.69209  5.6078E-03
    4.0406   2474.88   1.69223  5.6108E-03
    4.0375   2476.78   1.69209  5.6168E-03
    4.0343   2478.74   1.69223  5.6136E-03
    4.0312   2480.65   1.69217  5.6183E-03
    4.0281   2482.56   1.69210  5.6249E-03
    4.0249   2484.53   1.69223  5.6196E-03
    4.0218   2486.45   1.69217  5.6243E-03
    4.0187   2488.37   1.69217  5.6328E-03
    4.0156   2490.29   1.69217  5.6388E-03
    4.0125   2492.21   1.69217  5.6373E-03
    4.0094   2494.14   1.69217  5.6356E-03
    4.0063   2496.07   1.69217  5.6446E-03
    4.0032   2498.00   1.69216  5.6521E-03
    4.0001   2499.94   1.69216  5.6491E-03
    3.9970   2501.88   1.69215  5.6420E-03
    3.9939   2503.82   1.69223  5.6425E-03
    3.9909   2505.70   1.69209  5.6497E-03
    3.9878   2507.65   1.69216  5.6506E-03
    3.9847   2509.60   1.69223  5.6480E-03
    3.9817   2511.49   1.69209  5.6587E-03
    3.9786   2513.45   1.69223  5.6702E-03
    3.9756   2515.34   1.69207  5.6677E-03
    3.9725   2517.31   1.69221  5.6647E-03
    3.9695   2519.21   1.69206  5.6640E-03
    3.9664   2521.18   1.69220  5.6655E-03
    3.9634   2523.09   1.69212  5.6657E-03
    3.9604   2525.00   1.69205  5.6649E-03
    3.9573   2526.98   1.69217  5.6604E-03
    3.9543   2528.89   1.69209  5.6519E-03
    3.9513   2530.81   1.69210  5.6412E-03
    3.9483   2532.74   1.69210  5.6279E-03
    3.9453   2534.66   1.69210  5.6258E-03
    3.9423   2536.59   1.69211  5.6288E-03
    3.9393   2538.52   1.69211  5.6266E-03
    3.9363   2540.46   1.69210  5.6271E-03
    3.9333   2542.39   1.69210  5.6346E-03
    3.9303   2544.34   1.69216  5.6382E-03
    3.9274   2546.21   1.69201  5.6269E-03
    3.9244   2548.16   1.69208  5.6121E-03
    3.9214   2550.11   1.69215  5.6036E-03
    3.9185   2552.00   1.69201  5.5982E-03
    3.9155   2553.95   1.69209  5.5912E-03
    3.9125   2555.91   1.69215  5.5976E-03
    3.9096   2557.81   1.69208  5.5974E-03
    3.9067   2559.71   1.69201  5.5826E-03
    3.9037   2561.67   1.69216  5.5801E-03
    3.9008   2563.58   1.69209  5.5803E-03
    3.8979   2565.48   1.69202  5.5705E-03
    3.8949   2567.46   1.69216  5.5673E-03
    3.8920   2569.37   1.69208  5.5760E-03
    3.8891   2571.29   1.69209  5.5675E-03
    3.8862   2573.21   1.69202  5.5495E-03
    3.8832   2575.20   1.69216  5.5444E-03
    3.8803   2577.12   1.69209  5.5485E-03
    3.8774   2579.05   1.69210  5.5525E-03
    3.8745   2580.98   1.69209  5.5517E-03
    3.8716   2582.91   1.69217  5.5478E-03
    3.8688   2584.78   1.69203  5.5457E-03
    3.8659   2586.72   1.69211  5.5435E-03
    3.8630   2588.66   1.69210  5.5410E-03
    3.8601   2590.61   1.69210  5.5382E-03
    3.8572   2592.55   1.69218  5.5401E-03
    3.8544   2594.44   1.69203  5.5363E-03
    3.8515   2596.39   1.69218  5.5395E-03
    3.8487   2598.28   1.69203  5.5455E-03
    3.8458   2600.24   1.69217  5.5399E-03
    3.8430   2602.13   1.69202  5.5245E-03
    3.8401   2604.10   1.69218  5.5171E-03
    3.8373   2606.00   1.69203  5.5149E-03
    3.8344   2607.97   1.69218  5.5164E-03
    3.8316   2609.88   1.69211  5.5235E-03
    3.8288   2611.78   1.69204  5.5186E-03
    3.8259   2613.76   1.69218  5.5147E-03
    3.8231   2615.68   1.69210  5.5233E-03
    3.8203   2617.60   1.69211  5.5147E-03
    3.8175   2619.52   1.69211  5.5121E-03
    3.8147   2621.44   1.69211  5.5134E-03
    3.8119   2623.36   1.69210  5.5094E-03
    3.8091   2625.29   1.69210  5.5015E-03
    3.8063   2627.22   1.69211  5.4951E-03
    3.8035   2629.16   1.69211  5.4959E-03
    3.8007   2631.09   1.69211  5.4959E-03
    3.7979   2633.03   1.69211  5.4938E-03
    3.7951   2634.98   1.69211  5.5017E-03
    3.7923   2636.92   1.69218  5.4966E-03
    3.7896   2638.80   1.69203  5.4839E-03
    3.7868   2640.75   1.69211  5.4831E-03
    3.7840   2642.71   1.69219  5.4842E-03
    3.7813   2644.59   1.69203  5.4805E-03
    3.7785   2646.55   1.69219  5.4786E-03
    3.7758   2648.45   1.69204  5.4735E-03
    3.7730   2650.41   1.69219  5.4720E-03
    3.7703   2652.31   1.69204  5.4722E-03
    3.7675   2654.28   1.69219  5.4662E-03
    3.7648   2656.18   1.69212  5.4669E-03
    3.7621   2658.09   1.69204  5.4626E-03
    3.7593   2660.07   1.69219  5.4517E-03
    3.7566   2661.98   1.69212  5.4604E-03
    3.7539   2663.90   1.69212  5.4681E-03
    3.7512   2665.81   1.69212  5.4626E-03
    3.7485   2667.73   1.69212  5.4442E-03
    3.7458   2669.66   1.69213  5.4397E-03
    3.7431   2671.58   1.69213  5.4459E-03
    3.7404   2673.51   1.69213  5.4528E-03
    3.7377   2675.44   1.69213  5.4523E-03
    3.7350   2677.38   1.69213  5.4359E-03
    3.7323   2679.31   1.69214  5.4293E-03
    3.7296   2681.25   1.69214  5.4397E-03
    3.7269   2683.20   1.69214  5.4474E-03
    3.7242   2685.14   1.69222  5.4455E-03
    3.7216   2687.02   1.69206  5.4466E-03
    3.7189   2688.97   1.69213  5.4457E-03
    3.7162   2690.92   1.69221  5.4374E-03
    3.7136   2692.80   1.69205  5.4348E-03
    3.7109   2694.76   1.69222  5.4314E-03
    3.7083   2696.65   1.69206  5.4333E-03
    3.7056   2698.62   1.69214  5.4329E-03
    3.7029   2700.59   1.69221  5.4254E-03
    3.7003   2702.48   1.69214  5.4239E-03
    3.6977   2704.38   1.69207  5.4265E-03
    3.6950   2706.36   1.69222  5.4282E-03
    3.6924   2708.27   1.69215  5.4288E-03
    3.6898   2710.17   1.69207  5.4269E-03
    3.6871   2712.16   1.69222  5.4344E-03
    3.6845   2714.07   1.69213  5.4335E-03
    3.6819   2715.99   1.69213  5.4226E-03
    3.6793   2717.91   1.69213  5.4169E-03
    3.6767   2719.83   1.69213  5.4154E-03
    3.6741   2721.75   1.69213  5.4062E-03
    3.6715   2723.68   1.69214  5.3981E-03
    3.6689   2725.61   1.69214  5.4034E-03
    3.6663   2727.55   1.69214  5.4055E-03
    3.6637   2729.48   1.69214  5.4058E-03
    3.6611   2731.42   1.69214  5.4070E-03
    3.6585   2733.36   1.69213  5.3876E-03
    3.6559   2735.30   1.69222  5.3793E-03
    3.6534   2737.18   1.69207  5.3880E-03
    3.6508   2739.13   1.69215  5.3859E-03
    3.6482   2741.08   1.69223  5.3844E-03
    3.6457   2742.96   1.69207  5.3850E-03
    3.6431   2744.92   1.69215  5.3733E-03
    3.6405   2746.88   1.69224  5.3712E-03
    3.6380   2748.76   1.69208  5.3759E-03
    3.6354   2750.73   1.69225  5.3788E-03
    3.6329   2752.62   1.69208  5.3818E-03
    3.6303   2754.59   1.69224  5.3850E-03
    3.6278   2756.49   1.69216  5.3727E-03
    3.6253   2758.39   1.69209  5.3652E-03
    3.6227   2760.37   1.69225  5.3720E-03
    3.6202   2762.28   1.69217  5.3801E-03
    3.6177   2764.19   1.69217  5.3733E-03
    3.6152   2766.10   1.69210  5.3671E-03
    3.6126   2768.09   1.69225  5.3688E-03
    3.6101   2770.01   1.69217  5.3724E-03
    3.6076   2771.93   1.69218  5.3688E-03
    3.6051   2773.85   1.69218  5.3707E-03
    3.6026   2775.77   1.69218  5.3746E-03
    3.6001   2777.70   1.69217  5.3714E-03
    3.5976   2779.63   1.69217  5.3650E-03
    3.5951   2781.56   1.69218  5.3605E-03
    3.5926   2783.50   1.69218  5.3581E-03
    3.5901   2785.44   1.69218  5.3609E-03
    3.5876   2787.38   1.69227  5.3626E-03
    3.5852   2789.24   1.69211  5.3669E-03
    3.5827   2791.19   1.69219  5.3720E-03
    3.5802   2793.14   1.69217  5.3673E-03
    3.5777   2795.09   1.69225  5.3605E-03
    3.5753   2796.97   1.69210  5.3498E-03
    3.5728   2798.93   1.69218  5.3430E-03
    3.5703   2800.89   1.69227  5.3500E-03
    3.5679   2802.77   1.69210  5.3532E-03
    3.5654   2804.73   1.69228  5.3455E-03
    3.5630   2806.62   1.69211  5.3487E-03
    3.5605   2808.59   1.69228  5.3494E-03
    3.5581   2810.49   1.69211  5.3457E-03
    3.5556   2812.46   1.69228  5.3524E-03
    3.5532   2814.36   1.69219  5.3639E-03
    3.5508   2816.27   1.69220  5.3577E-03
    3.5484   2818.17   1.69211  5.3511E-03
    3.5459   2820.16   1.69227  5.3479E-03
    3.5435   2822.07   1.69219  5.3440E-03
    3.5411   2823.98   1.69221  5.3487E-03
    3.5387   2825.90   1.69212  5.3468E-03
    3.5362   2827.89   1.69228  5.3402E-03
    3.5338   2829.81   1.69220  5.3391E-03
    3.5314   2831.74   1.69221  5.3468E-03
    3.5290   2833.66   1.69221  5.3483E-03
    3.5266   2835.59   1.69220  5.3445E-03
    3.5242   2837.52   1.69221  5.3370E-03
    3.5218   2839.46   1.69221  5.3370E-03
    3.5194   2841.39   1.69221  5.3440E-03
    3.5170   2843.33   1.69230  5.3453E-03
    3.5147   2845.19   1.69214  5.3487E-03
    3.5123   2847.14   1.69222  5.3583E-03
    3.5099   2849.08   1.69221  5.3600E-03
    3.5075   2851.03   1.69229  5.3524E-03
    3.5052   2852.90   1.69212  5.3483E-03
    3.5028   2854.86   1.69221  5.3485E-03
    3.5004   2856.82   1.69229  5.3549E-03
    3.4981   2858.69   1.69212  5.3449E-03
    3.4957   2860.66   1.69221  5.3342E-03
    3.4933   2862.62   1.69231  5.3453E-03
    3.4910   2864.51   1.69213  5.3598E-03
    3.4886   2866.48   1.69230  5.3605E-03
    3.4863   2868.37   1.69221  5.3534E-03
    3.4840   2870.26   1.69213  5.3502E-03
    3.4816   2872.24   1.69230  5.3622E-03
    3.4793   2874.14   1.69211  5.3477E-03
    3.4769   2876.13   1.69229  5.3383E-03
    3.4746   2878.03   1.69221  5.3449E-03
    3.4723   2879.94   1.69222  5.3421E-03
    3.4700   2881.84   1.69213  5.3470E-03
    3.4676   2883.84   1.69229  5.3524E-03
    3.4653   2885.75   1.69220  5.3432E-03
    3.4630   2887.67   1.69221  5.3348E-03
    3.4607   2889.59   1.69222  5.3459E-03
    3.4584   2891.51   1.69222  5.3558E-03
    3.4561   2893.43   1.69221  5.3532E-03
    3.4538   2895.36   1.69221  5.3447E-03
    3.4515   2897.29   1.69222  5.3417E-03
    3.4492   2899.22   1.69222  5.3477E-03
    3.4469   2901.16   1.69222  5.3562E-03
    3.4446   2903.09   1.69221  5.3519E-03
    3.4423   2905.03   1.69221  5.3421E-03
    3.4400   2906.98   1.69231  5.3453E-03
    3.4378   2908.84   1.69214  5.3611E-03
    3.4355   2910.78   1.69222  5.3773E-03
    3.4332   2912.73   1.69219  5.3586E-03
    3.4309   2914.69   1.69229  5.3286E-03
    3.4287   2916.56   1.69213  5.3336E-03
    3.4264   2918.52   1.69223  5.3498E-03
    3.4241   2920.48   1.69232  5.3716E-03
    3.4219   2922.35   1.69212  5.3863E-03
    3.4196   2924.32   1.69230  5.3808E-03
    3.4174   2926.20   1.69210  5.3722E-03
    3.4151   2928.17   1.69229  5.3658E-03
    3.4129   2930.06   1.69210  5.3639E-03
    3.4106   2932.04   1.69228  5.3539E-03
    3.4084   2933.93   1.69210  5.3455E-03
    3.4061   2935.91   1.69228  5.3449E-03
    3.4039   2937.81   1.69220  5.3564E-03
    3.4017   2939.71   1.69211  5.3650E-03
    3.3994   2941.70   1.69227  5.3613E-03
    3.3972   2943.60   1.69218  5.3434E-03
    3.3950   2945.51   1.69220  5.3312E-03
    3.3928   2947.42   1.69212  5.3455E-03
    3.3905   2949.42   1.69229  5.3643E-03
    3.3883   2951.33   1.69218  5.3767E-03
    3.3861   2953.25   1.69217  5.3737E-03
    3.3839   2955.17   1.69217  5.3532E-03
    3.3817   2957.09   1.69217  5.3421E-03
    3.3795   2959.02   1.69218  5.3372E-03
    3.3773   2960.95   1.69218  5.3404E-03
    3.3751   2962.88   1.69218  5.3489E-03
    3.3729   2964.81   1.69217  5.3479E-03
    3.3707   2966.74   1.69217  5.3357E-03
    3.3685   2968.68   1.69218  5.3252E-03
    3.3663   2970.62   1.69218  5.3259E-03
    3.3641   2972.56   1.69228  5.3462E-03
    3.3620   2974.42   1.69209  5.3558E-03
    3.3598   2976.37   1.69218  5.3521E-03
    3.3576   2978.32   1.69216  5.3430E-03
    3.3554   2980.27   1.69226  5.3314E-03
    3.3533   2982.14   1.69208  5.3338E-03
    3.3511   2984.09   1.69217  5.3423E-03
    3.3489   2986.06   1.69225  5.3442E-03
    3.3468   2987.93   1.69206  5.3276E-03
    3.3446   2989.89   1.69216  5.3216E-03
    3.3424   2991.86   1.69225  5.3154E-03
    3.3403   2993.74   1.69207  5.3158E-03
    3.3381   2995.72   1.69227  5.3224E-03
    3.3360   2997.60   1.69207  5.3333E-03
    3.3338   2999.58   1.69225  5.3301E-03
    3.3317   3001.47   1.69216  5.3167E-03
    3.3296   3003.36   1.69207  5.3090E-03
    3.3274   3005.35   1.69225  5.3060E-03
    3.3253   3007.25   1.69217  5.3032E-03
    3.3232   3009.15   1.69208  5.3026E-03
    3.3210   3011.14   1.69227  5.3137E-03
    3.3189   3013.05   1.69217  5.3188E-03
    3.3168   3014.95   1.69218  5.3152E-03
    3.3147   3016.86   1.69208  5.3165E-03
    3.3125   3018.87   1.69226  5.3122E-03
    3.3104   3020.78   1.69216  5.3094E-03
    3.3083   3022.70   1.69217  5.3109E-03
    3.3062   3024.62   1.69217  5.3141E-03
    3.3041   3026.54   1.69217  5.3071E-03
    3.3020   3028.47   1.69217  5.3002E-03
    3.2999   3030.39   1.69217  5.3101E-03
    3.2978   3032.32   1.69217  5.3092E-03
    3.2957   3034.26   1.69217  5.3060E-03
    3.2936   3036.19   1.69218  5.3135E-03
    3.2915   3038.13   1.69217  5.3233E-03
    3.2894   3040.07   1.69215  5.3143E-03
    3.2873   3042.01   1.69226  5.2979E-03
    3.2853   3043.86   1.69208  5.3000E-03
    3.2832   3045.81   1.69219  5.3101E-03
    3.2811   3047.76   1.69218  5.3177E-03
    3.2790   3049.71   1.69216  5.3327E-03
    3.2769   3051.66   1.69225  5.3327E-03
    3.2749   3053.53   1.69205  5.3141E-03
    3.2728   3055.49   1.69225  5.3060E-03
    3.2708   3057.36   1.69206  5.3034E-03
    3.2687   3059.32   1.69216  5.3028E-03
    3.2666   3061.29   1.69225  5.3056E-03
    3.2646   3063.16   1.69205  5.3105E-03
    3.2625   3065.13   1.69225  5.3024E-03
    3.2605   3067.01   1.69205  5.3011E-03
    3.2584   3068.99   1.69225  5.2970E-03
    3.2564   3070.88   1.69205  5.2906E-03
    3.2543   3072.86   1.69226  5.2904E-03
    3.2523   3074.75   1.69206  5.2900E-03
    3.2502   3076.73   1.69225  5.2885E-03
    3.2482   3078.63   1.69216  5.2876E-03
    3.2462   3080.52   1.69207  5.2765E-03
    3.2441   3082.52   1.69227  5.2814E-03
    3.2421   3084.42   1.69217  5.2968E-03
    3.2401   3086.32   1.69218  5.3105E-03
    3.2381   3088.23   1.69207  5.3130E-03
    3.2360   3090.23   1.69225  5.3062E-03
    3.2340   3092.15   1.69214  5.2900E-03
    3.2320   3094.06   1.69216  5.2846E-03
    3.2300   3095.98   1.69217  5.2769E-03
    3.2280   3097.89   1.69218  5.2776E-03
    3.2260   3099.81   1.69219  5.3002E-03
    3.2240   3101.74   1.69218  5.3145E-03
    3.2220   3103.66   1.69217  5.3124E-03
    3.2200   3105.59   1.69217  5.3098E-03
    3.2180   3107.52   1.69217  5.3007E-03
    3.2160   3109.45   1.69217  5.3090E-03
    3.2140   3111.39   1.69217  5.3128E-03
    3.2120   3113.33   1.69216  5.3101E-03
    3.2100   3115.26   1.69216  5.3109E-03
    3.2080   3117.21   1.69216  5.3165E-03
    3.2060   3119.15   1.69214  5.3199E-03
    3.2040   3121.10   1.69225  5.2960E-03
    3.2021   3122.95   1.69206  5.2985E-03
    3.2001   3124.90   1.69217  5.3203E-03
    3.1981   3126.86   1.69214  5.3113E-03
    3.1961   3128.81   1.69225  5.2998E-03
    3.1942   3130.67   1.69205  5.3126E-03
    3.1922   3132.64   1.69215  5.3135E-03
    3.1902   3134.60   1.69225  5.2979E-03
    3.1883   3136.47   1.69204  5.3019E-03
    3.1863   3138.44   1.69226  5.3026E-03
    3.1844   3140.31   1.69206  5.2955E-03
    3.1824   3142.28   1.69216  5.3032E-03
    3.1804   3144.26   1.69225  5.3096E-03
    3.1785   3146.14   1.69216  5.3028E-03
    3.1766   3148.02   1.69206  5.3073E-03
    3.1746   3150.00   1.69227  5.3190E-03
    3.1727   3151.89   1.69205  5.3263E-03
    3.1707   3153.88   1.69225  5.3318E-03
    3.1688   3155.77   1.69215  5.3284E-03
    3.1669   3157.66   1.69204  5.3278E-03
    3.1649   3159.66   1.69224  5.3297E-03
    3.1630   3161.56   1.69214  5.3128E-03
    3.1611   3163.46   1.69204  5.3180E-03
    3.1591   3165.46   1.69224  5.3299E-03
    3.1572   3167.36   1.69213  5.3224E-03
    3.1553   3169.27   1.69214  5.3143E-03
    3.1534   3171.18   1.69215  5.3145E-03
    3.1515   3173.09   1.69205  5.3271E-03
    3.1495   3175.11   1.69224  5.3374E-03
    3.1476   3177.02   1.69212  5.3265E-03
    3.1457   3178.94   1.69213  5.3276E-03
    3.1438   3180.86   1.69214  5.3353E-03
    3.1419   3182.79   1.69213  5.3457E-03
    3.1400   3184.71   1.69212  5.3496E-03
    3.1381   3186.64   1.69212  5.3442E-03
    3.1362   3188.57   1.69211  5.3515E-03
    3.1343   3190.51   1.69209  5.3489E-03
    3.1324   3192.44   1.69209  5.3190E-03
    3.1305   3194.38   1.69210  5.3098E-03
    3.1286   3196.32   1.69210  5.3101E-03
    3.1267   3198.26   1.69222  5.3175E-03
    3.1249   3200.10   1.69201  5.3220E-03
    3.1230   3202.05   1.69212  5.3237E-03
    3.1211   3204.00   1.69211  5.3284E-03
    3.1192   3205.95   1.69210  5.3368E-03
    3.1173   3207.90   1.69221  5.3440E-03
    3.1155   3209.76   1.69199  5.3462E-03
    3.1136   3211.72   1.69208  5.3323E-03
    3.1117   3213.68   1.69219  5.3154E-03
    3.1099   3215.54   1.69199  5.3077E-03
    3.1080   3217.50   1.69210  5.3190E-03
    3.1061   3219.47   1.69220  5.3351E-03
    3.1043   3221.34   1.69198  5.3246E-03
    3.1024   3223.31   1.69221  5.3182E-03
    3.1006   3225.18   1.69199  5.3280E-03
    3.0987   3227.16   1.69209  5.3357E-03
    3.0968   3229.14   1.69219  5.3344E-03
    3.0950   3231.02   1.69209  5.3235E-03
    3.0932   3232.90   1.69199  5.3214E-03
    3.0913   3234.88   1.69221  5.3434E-03
    3.0895   3236.77   1.69197  5.3485E-03
    3.0876   3238.76   1.69219  5.3357E-03
    3.0858   3240.65   1.69209  5.3385E-03
    3.0840   3242.54   1.69198  5.3566E-03
    3.0821   3244.54   1.69218  5.3720E-03
    3.0803   3246.44   1.69206  5.3513E-03
    3.0785   3248.34   1.69195  5.3344E-03
    3.0766   3250.34   1.69217  5.3447E-03
    3.0748   3252.24   1.69205  5.3438E-03
    3.0730   3254.15   1.69206  5.3378E-03
    3.0712   3256.06   1.69207  5.3387E-03
    3.0694   3257.97   1.69195  5.3586E-03
    3.0675   3259.98   1.69215  5.3600E-03
    3.0657   3261.90   1.69202  5.3434E-03
    3.0639   3263.81   1.69203  5.3417E-03
    3.0621   3265.73   1.69203  5.3254E-03
    3.0603   3267.65   1.69204  5.3192E-03
    3.0585   3269.58   1.69205  5.3293E-03
    3.0567   3271.50   1.69204  5.3342E-03
    3.0549   3273.43   1.69204  5.3331E-03
    3.0531   3275.36   1.69204  5.3342E-03
    3.0513   3277.29   1.69204  5.3524E-03
    3.0495   3279.23   1.69202  5.3485E-03
    3.0477   3281.16   1.69202  5.3336E-03
    3.0459   3283.10   1.69202  5.3220E-03
    3.0441   3285.04   1.69202  5.3207E-03
    3.0423   3286.99   1.69214  5.3220E-03
    3.0406   3288.82   1.69192  5.3257E-03
    3.0388   3290.77   1.69204  5.3374E-03
    3.0370   3292.72   1.69203  5.3353E-03
    3.0352   3294.68   1.69201  5.3383E-03
    3.0334   3296.63   1.69213  5.3459E-03
    3.0317   3298.48   1.69190  5.3368E-03
    3.0299   3300.44   1.69202  5.3293E-03
    3.0281   3302.40   1.69200  5.3293E-03
    3.0263   3304.37   1.69212  5.3231E-03
    3.0246   3306.22   1.69189  5.3163E-03
    3.0228   3308.19   1.69214  5.3177E-03
    3.0211   3310.05   1.69191  5.3383E-03
    3.0193   3312.03   1.69201  5.3457E-03
    3.0175   3314.00   1.69212  5.3410E-03
    3.0158   3315.87   1.69188  5.3504E-03
    3.0140   3317.85   1.69212  5.3528E-03
    3.0123   3319.72   1.69187  5.3489E-03
    3.0105   3321.71   1.69210  5.3291E-03
    3.0088   3323.58   1.69187  5.3299E-03
    3.0070   3325.57   1.69210  5.3442E-03
    3.0053   3327.45   1.69198  5.3348E-03
    3.0036   3329.34   1.69187  5.3340E-03
    3.0018   3331.33   1.69211  5.3374E-03
    3.0001   3333.22   1.69186  5.3391E-03
    2.9983   3335.22   1.69209  5.3385E-03
    2.9966   3337.12   1.69198  5.3504E-03
    2.9949   3339.01   1.69185  5.3485E-03
    2.9931   3341.02   1.69207  5.3404E-03
    2.9914   3342.92   1.69195  5.3449E-03
    2.9897   3344.82   1.69195  5.3318E-03
    2.9880   3346.72   1.69197  5.3054E-03
    2.9863   3348.63   1.69186  5.3145E-03
    2.9845   3350.64   1.69208  5.3387E-03
    2.9828   3352.55   1.69195  5.3387E-03
    2.9811   3354.47   1.69196  5.3169E-03
    2.9794   3356.38   1.69197  5.3186E-03
    2.9777   3358.30   1.69197  5.3432E-03
    2.9760   3360.22   1.69197  5.3434E-03
    2.9743   3362.14   1.69197  5.3524E-03
    2.9726   3364.06   1.69184  5.3613E-03
    2.9708   3366.10   1.69204  5.3560E-03
    2.9691   3368.02   1.69191  5.3391E-03
    2.9674   3369.95   1.69192  5.3284E-03
    2.9657   3371.89   1.69205  5.3370E-03
    2.9641   3373.71   1.69180  5.3363E-03
    2.9624   3375.64   1.69193  5.3143E-03
    2.9607   3377.58   1.69194  5.3058E-03
    2.9590   3379.52   1.69195  5.3214E-03
    2.9573   3381.46   1.69195  5.3400E-03
    2.9556   3383.41   1.69194  5.3524E-03
    2.9539   3385.35   1.69192  5.3547E-03
    2.9522   3387.30   1.69204  5.3609E-03
    2.9506   3389.14   1.69178  5.3547E-03
    2.9489   3391.09   1.69191  5.3361E-03
    2.9472   3393.05   1.69190  5.3182E-03
    2.9455   3395.01   1.69204  5.3246E-03
    2.9439   3396.85   1.69180  5.3383E-03
    2.9422   3398.82   1.69192  5.3551E-03
    2.9405   3400.78   1.69189  5.3462E-03
    2.9388   3402.75   1.69201  5.3323E-03
    2.9372   3404.60   1.69177  5.3365E-03
    2.9355   3406.57   1.69202  5.3297E-03
    2.9339   3408.43   1.69177  5.3340E-03
    2.9322   3410.41   1.69203  5.3438E-03
    2.9306   3412.27   1.69177  5.3530E-03
    2.9289   3414.25   1.69188  5.3556E-03
    2.9272   3416.23   1.69200  5.3363E-03
    2.9256   3418.10   1.69175  5.3442E-03
    2.9239   3420.09   1.69200  5.3541E-03
    2.9223   3421.96   1.69174  5.3447E-03
    2.9206   3423.95   1.69200  5.3464E-03
    2.9190   3425.83   1.69173  5.3703E-03
    2.9173   3427.83   1.69196  5.3592E-03
    2.9157   3429.71   1.69184  5.3459E-03
    2.9141   3431.59   1.69172  5.3500E-03
    2.9124   3433.59   1.69195  5.3276E-03
    2.9108   3435.48   1.69184  5.3233E-03
    2.9092   3437.37   1.69172  5.3374E-03
    2.9075   3439.38   1.69195  5.3297E-03
    2.9059   3441.27   1.69183  5.3237E-03
    2.9043   3443.17   1.69171  5.3293E-03
    2.9026   3445.19   1.69194  5.3361E-03
    2.9010   3447.09   1.69180  5.3271E-03
    2.8994   3448.99   1.69181  5.3062E-03
    2.8978   3450.89   1.69182  5.2994E-03
    2.8962   3452.80   1.69184  5.3000E-03
    2.8946   3454.71   1.69172  5.2960E-03
    2.8929   3456.74   1.69196  5.3143E-03
    2.8913   3458.65   1.69182  5.3297E-03
    2.8897   3460.57   1.69182  5.3312E-03
    2.8881   3462.48   1.69181  5.3165E-03
    2.8865   3464.40   1.69181  5.3054E-03
    2.8849   3466.32   1.69182  5.2943E-03
    2.8833   3468.25   1.69183  5.2943E-03
    2.8817   3470.17   1.69184  5.2932E-03
    2.8801   3472.10   1.69184  5.3101E-03
    2.8785   3474.03   1.69184  5.3348E-03
    2.8769   3475.96   1.69183  5.3370E-03
    2.8753   3477.90   1.69182  5.3254E-03
    2.8737   3479.83   1.69182  5.3355E-03
    2.8721   3481.77   1.69181  5.3487E-03
    2.8705   3483.71   1.69180  5.3400E-03
    2.8689   3485.66   1.69180  5.3353E-03
    2.8673   3487.60   1.69179  5.3438E-03
    2.8657   3489.55   1.69192  5.3639E-03
    2.8642   3491.38   1.69165  5.3481E-03
    2.8626   3493.33   1.69179  5.3312E-03
    2.8610   3495.28   1.69176  5.3536E-03
    2.8594   3497.24   1.69188  5.3464E-03
    2.8579   3499.07   1.69162  5.3122E-03
    2.8563   3501.03   1.69177  5.3032E-03
    2.8547   3503.00   1.69176  5.3083E-03
    2.8531   3504.96   1.69190  5.3103E-03
    2.8516   3506.80   1.69165  5.3075E-03
    2.8500   3508.77   1.69178  5.3122E-03
    2.8484   3510.74   1.69191  5.3250E-03
    2.8469   3512.59   1.69165  5.3201E-03
    2.8453   3514.57   1.69178  5.3267E-03
    2.8437   3516.55   1.69190  5.3378E-03
    2.8422   3518.40   1.69163  5.3400E-03
    2.8406   3520.38   1.69190  5.3342E-03
    2.8391   3522.24   1.69163  5.3406E-03
    2.8375   3524.23   1.69190  5.3464E-03
    2.8360   3526.09   1.69163  5.3466E-03
    2.8344   3528.08   1.69189  5.3643E-03
    2.8329   3529.95   1.69160  5.3643E-03
    2.8313   3531.95   1.69186  5.3355E-03
    2.8298   3533.82   1.69160  5.3246E-03
    2.8282   3535.82   1.69188  5.3306E-03
    2.8267   3537.69   1.69161  5.3342E-03
    2.8251   3539.70   1.69187  5.3365E-03
    2.8236   3541.58   1.69175  5.3412E-03
    2.8221   3543.46   1.69163  5.3383E-03
    2.8205   3545.47   1.69189  5.3724E-03
    2.8190   3547.36   1.69174  5.4030E-03
    2.8175   3549.25   1.69158  5.3955E-03
    2.8159   3551.26   1.69183  5.3590E-03
    2.8144   3553.16   1.69171  5.3451E-03
    2.8129   3555.05   1.69174  5.3571E-03
    2.8114   3556.95   1.69160  5.3870E-03
    2.8098   3558.97   1.69184  5.4058E-03
    2.8083   3560.87   1.69168  5.3966E-03
    2.8068   3562.78   1.69170  5.3823E-03
    2.8053   3564.68   1.69156  5.3746E-03
    2.8037   3566.72   1.69182  5.3838E-03
    2.8022   3568.62   1.69167  5.3917E-03
    2.8007   3570.54   1.69168  5.3761E-03
    2.7992   3572.45   1.69169  5.3652E-03
    2.7977   3574.36   1.69170  5.3746E-03
    2.7962   3576.28   1.69171  5.3893E-03
    2.7947   3578.20   1.69171  5.4145E-03
    2.7932   3580.12   1.69170  5.4352E-03
    2.7917   3582.05   1.69169  5.4301E-03
    2.7902   3583.97   1.69169  5.4446E-03
    2.7887   3585.90   1.69168  5.4780E-03
    2.7872   3587.83   1.69165  5.5019E-03
    2.7857   3589.76   1.69162  5.4912E-03
    2.7842   3591.70   1.69161  5.4566E-03
    2.7827   3593.63   1.69162  5.4478E-03
    2.7812   3595.57   1.69162  5.4891E-03
    2.7797   3597.51   1.69160  5.5032E-03
    2.7782   3599.45   1.69158  5.4837E-03
    2.7767   3601.40   1.69156  5.4906E-03
    2.7752   3603.34   1.69170  5.4876E-03
    2.7738   3605.16   1.69142  5.4895E-03
    2.7723   3607.11   1.69156  5.5070E-03
    2.7708   3609.07   1.69153  5.5121E-03
    2.7693   3611.02   1.69150  5.5010E-03
    2.7678   3612.98   1.69164  5.4842E-03
    2.7664   3614.81   1.69136  5.4771E-03
    2.7649   3616.77   1.69151  5.4916E-03
    2.7634   3618.73   1.69149  5.4955E-03
    2.7619   3620.70   1.69163  5.5066E-03
    2.7605   3622.53   1.69133  5.5160E-03
    2.7590   3624.50   1.69146  5.5160E-03
    2.7575   3626.47   1.69159  5.5158E-03
    2.7561   3628.32   1.69130  5.5288E-03
    2.7546   3630.29   1.69141  5.5450E-03
    2.7531   3632.27   1.69153  5.5331E-03
    2.7517   3634.12   1.69123  5.5025E-03
    2.7502   3636.10   1.69138  5.4771E-03
    2.7487   3638.08   1.69153  5.4987E-03
    2.7473   3639.94   1.69123  5.5151E-03
    2.7458   3641.93   1.69152  5.5173E-03
    2.7444   3643.78   1.69121  5.5224E-03
    2.7429   3645.78   1.69150  5.5480E-03
    2.7415   3647.64   1.69117  5.5715E-03
    2.7400   3649.64   1.69145  5.5412E-03
    2.7386   3651.50   1.69115  5.5335E-03
    2.7371   3653.50   1.69144  5.5769E-03
    2.7357   3655.37   1.69110  5.5920E-03
    2.7342   3657.38   1.69136  5.5724E-03
    2.7328   3659.25   1.69121  5.5681E-03
    2.7314   3661.13   1.69105  5.5797E-03
    2.7299   3663.14   1.69130  5.5848E-03
    2.7285   3665.02   1.69114  5.5826E-03
    2.7271   3666.90   1.69096  5.6064E-03
    2.7256   3668.92   1.69121  5.5852E-03
    2.7242   3670.80   1.69105  5.5664E-03
    2.7228   3672.69   1.69088  5.5786E-03
    2.7213   3674.71   1.69112  5.5818E-03
    2.7199   3676.61   1.69095  5.5613E-03
    2.7185   3678.50   1.69078  5.5536E-03
    2.7170   3680.53   1.69102  5.5717E-03
    2.7156   3682.43   1.69082  5.5576E-03
    2.7142   3684.33   1.69077  5.5489E-03
    2.7128   3686.23   1.69070  5.5241E-03
    2.7114   3688.13   1.69066  5.4235E-03
    2.7100   3690.04   1.69050  5.3562E-03
    2.7085   3692.08   1.69074  5.3205E-03
    2.7071   3693.99   1.69057  5.2592E-03
    2.7057   3695.90   1.69057  5.1631E-03
    2.7043   3697.81   1.69059  5.1007E-03
    2.7029   3699.73   1.69060  5.0761E-03
    2.7015   3701.65   1.69060  5.0336E-03
    2.7001   3703.57   1.69061  4.9638E-03
    2.6987   3705.49   1.69064  4.9018E-03
    2.6973   3707.41   1.69068  4.8811E-03
    2.6959   3709.34   1.69071  4.8685E-03
    2.6945   3711.26   1.69072  4.8638E-03
    2.6931   3713.19   1.69073  4.8542E-03
    2.6917   3715.12   1.69073  4.8230E-03
    2.6903   3717.06   1.69074  4.7935E-03
    2.6889   3718.99   1.69075  4.7679E-03
    2.6875   3720.93   1.69077  4.7305E-03
    2.6861   3722.87   1.69079  4.7008E-03
    2.6847   3724.81   1.69083  4.6679E-03
    2.6833   3726.75   1.69086  4.6848E-03
    2.6819   3728.70   1.69087  4.6938E-03
    2.6805   3730.65   1.69087  4.6735E-03
    2.6791   3732.60   1.69103  4.6504E-03
    2.6778   3734.41   1.69080  4.6455E-03
    2.6764   3736.36   1.69095  4.6515E-03
    2.6750   3738.32   1.69095  4.6459E-03
    2.6736   3740.28   1.69096  4.6307E-03
    2.6722   3742.23   1.69111  4.6478E-03
    2.6709   3744.06   1.69086  4.6544E-03
    2.6695   3746.02   1.69100  4.6209E-03
    2.6681   3747.99   1.69101  4.6038E-03
    2.6667   3749.95   1.69117  4.6149E-03
    2.6654   3751.78   1.69094  4.6175E-03
    2.6640   3753.75   1.69113  4.6070E-03
    2.6626   3755.73   1.69150  4.6047E-03
    2.6613   3757.56   1.68991  4.6081E-03
    2.6585   3761.52   1.69122  4.6055E-03
    2.6558   3765.34   1.69111  4.6087E-03
    2.6531   3769.18   1.69111  4.6068E-03
    2.6504   3773.02   1.69112  4.6000E-03
    2.6477   3776.86   1.69113  4.6188E-03
    2.6450   3780.72   1.69112  4.6303E-03
    2.6423   3784.58   1.69111  4.6102E-03
    2.6396   3788.45   1.69112  4.5876E-03
    2.6369   3792.33   1.69113  4.5707E-03
    2.6342   3796.22   1.69114  4.5677E-03
    2.6315   3800.11   1.69122  4.5739E-03
    2.6289   3803.87   1.69110  4.5662E-03
    2.6262   3807.78   1.69117  4.5658E-03
    2.6235   3811.70   1.69123  4.5649E-03
    2.6209   3815.48   1.69118  4.5464E-03
    2.6183   3819.27   1.69113  4.5470E-03
    2.6156   3823.21   1.69126  4.5566E-03
    2.6130   3827.02   1.69113  4.5476E-03
    2.6103   3830.98   1.69126  4.5414E-03
    2.6077   3834.80   1.69120  4.5421E-03
    2.6051   3838.62   1.69121  4.5500E-03
    2.6025   3842.46   1.69121  4.5474E-03
    2.5999   3846.30   1.69121  4.5348E-03
    2.5973   3850.15   1.69121  4.5229E-03
    2.5947   3854.01   1.69122  4.5171E-03
    2.5921   3857.88   1.69123  4.5224E-03
    2.5895   3861.75   1.69123  4.5184E-03
    2.5869   3865.63   1.69123  4.5162E-03
    2.5843   3869.52   1.69123  4.5194E-03
    2.5817   3873.42   1.69130  4.5171E-03
    2.5792   3877.17   1.69116  4.5169E-03
    2.5766   3881.08   1.69130  4.5047E-03
    2.5741   3884.85   1.69116  4.5028E-03
    2.5715   3888.78   1.69131  4.4818E-03
    2.5690   3892.57   1.69118  4.4759E-03
    2.5664   3896.51   1.69133  4.5036E-03
    2.5639   3900.31   1.69117  4.5137E-03
    2.5613   3904.27   1.69130  4.4902E-03
    2.5588   3908.08   1.69123  4.4737E-03
    2.5563   3911.90   1.69124  4.4598E-03
    2.5538   3915.73   1.69126  4.4528E-03
    2.5513   3919.57   1.69120  4.4680E-03
    2.5487   3923.57   1.69132  4.4814E-03
    2.5462   3927.42   1.69124  4.4545E-03
    2.5437   3931.28   1.69126  4.4404E-03
    2.5412   3935.15   1.69126  4.4613E-03
    2.5387   3939.02   1.69133  4.4603E-03
    2.5363   3942.75   1.69120  4.4492E-03
    2.5338   3946.64   1.69127  4.4566E-03
    2.5313   3950.54   1.69125  4.4554E-03
    2.5288   3954.44   1.69132  4.4299E-03
    2.5264   3958.20   1.69118  4.4261E-03
    2.5239   3962.12   1.69133  4.4152E-03
    2.5215   3965.89   1.69120  4.3975E-03
    2.5190   3969.83   1.69136  4.4094E-03
    2.5166   3973.62   1.69121  4.4274E-03
    2.5141   3977.57   1.69134  4.4250E-03
    2.5117   3981.37   1.69127  4.4222E-03
    2.5093   3985.18   1.69120  4.4169E-03
    2.5068   3989.15   1.69133  4.4022E-03
    2.5044   3992.97   1.69127  4.3970E-03
    2.5020   3996.80   1.69128  4.3987E-03
    2.4996   4000.64   1.69128  4.4017E-03
    2.4972   4004.49   1.69128  4.3925E-03
    2.4948   4008.34   1.69127  4.3911E-03
    2.4924   4012.20   1.69128  4.3782E-03
    2.4900   4016.06   1.69128  4.3767E-03
    2.4876   4019.94   1.69128  4.3885E-03
    2.4852   4023.82   1.69128  4.3714E-03
    2.4828   4027.71   1.69128  4.3605E-03
    2.4804   4031.61   1.69136  4.3714E-03
    2.4781   4035.35   1.69122  4.3714E-03
    2.4757   4039.26   1.69128  4.3584E-03
    2.4733   4043.18   1.69136  4.3564E-03
    2.4710   4046.94   1.69121  4.3673E-03
    2.4686   4050.88   1.69135  4.3545E-03
    2.4663   4054.66   1.69121  4.3349E-03
    2.4639   4058.61   1.69136  4.3460E-03
    2.4616   4062.40   1.69129  4.3517E-03
    2.4593   4066.20   1.69121  4.3400E-03
    2.4569   4070.17   1.69135  4.3203E-03
    2.4546   4073.98   1.69129  4.3097E-03
    2.4523   4077.80   1.69131  4.3171E-03
    2.4500   4081.63   1.69132  4.3257E-03
    2.4477   4085.47   1.69124  4.3421E-03
    2.4453   4089.48   1.69136  4.3492E-03
    2.4430   4093.33   1.69127  4.3240E-03
    2.4407   4097.19   1.69136  4.3067E-03
    2.4385   4100.88   1.69123  4.2998E-03
    2.4362   4104.75   1.69132  4.2936E-03
    2.4339   4108.63   1.69132  4.3094E-03
    2.4316   4112.52   1.69131  4.3191E-03
    2.4293   4116.41   1.69130  4.3169E-03
    2.4270   4120.31   1.69138  4.3135E-03
    2.4248   4124.05   1.69123  4.3122E-03
    2.4225   4127.97   1.69130  4.2885E-03
    2.4202   4131.89   1.69138  4.2928E-03
    2.4180   4135.65   1.69124  4.3035E-03
    2.4157   4139.59   1.69139  4.2951E-03
    2.4135   4143.36   1.69124  4.2986E-03
    2.4112   4147.31   1.69138  4.3000E-03
    2.4090   4151.10   1.69131  4.2996E-03
    2.4068   4154.89   1.69123  4.2924E-03
    2.4045   4158.87   1.69137  4.2855E-03
    2.4023   4162.68   1.69130  4.2900E-03
    2.4001   4166.49   1.69123  4.2868E-03
    2.3978   4170.49   1.69136  4.2755E-03
    2.3956   4174.32   1.69129  4.2644E-03
    2.3934   4178.16   1.69131  4.2567E-03
    2.3912   4182.00   1.69131  4.2684E-03
    2.3890   4185.85   1.69130  4.2808E-03
    2.3868   4189.71   1.69130  4.2582E-03
    2.3846   4193.58   1.69131  4.2451E-03
    2.3824   4197.45   1.69131  4.2552E-03
    2.3802   4201.33   1.69130  4.2618E-03
    2.3780   4205.21   1.69138  4.2531E-03
    2.3759   4208.93   1.69124  4.2507E-03
    2.3737   4212.83   1.69131  4.2535E-03
    2.3715   4216.74   1.69130  4.2531E-03
    2.3693   4220.66   1.69137  4.2462E-03
    2.3672   4224.40   1.69122  4.2400E-03
    2.3650   4228.33   1.69138  4.2347E-03
    2.3629   4232.09   1.69123  4.2338E-03
    2.3607   4236.03   1.69139  4.2396E-03
    2.3586   4239.80   1.69123  4.2509E-03
    2.3564   4243.76   1.69138  4.2511E-03
    2.3543   4247.55   1.69121  4.2415E-03
    2.3521   4251.52   1.69136  4.2274E-03
    2.3500   4255.32   1.69129  4.2234E-03
    2.3479   4259.13   1.69130  4.2231E-03
    2.3458   4262.94   1.69122  4.2155E-03
    2.3436   4266.94   1.69137  4.2133E-03
    2.3415   4270.77   1.69129  4.2167E-03
    2.3394   4274.60   1.69129  4.2155E-03
    2.3373   4278.44   1.69129  4.2071E-03
    2.3352   4282.29   1.69129  4.1988E-03
    2.3331   4286.14   1.69130  4.1956E-03
    2.3310   4290.00   1.69130  4.1926E-03
    2.3289   4293.87   1.69130  4.2041E-03
    2.3268   4297.75   1.69130  4.2095E-03
    2.3247   4301.63   1.69128  4.2048E-03
    2.3226   4305.52   1.69136  4.1992E-03
    2.3206   4309.23   1.69120  4.1909E-03
    2.3185   4313.13   1.69128  4.1648E-03
    2.3164   4317.04   1.69137  4.1614E-03
    2.3144   4320.77   1.69122  4.1672E-03
    2.3123   4324.70   1.69130  4.1629E-03
    2.3102   4328.63   1.69137  4.1642E-03
    2.3082   4332.38   1.69122  4.1693E-03
    2.3061   4336.33   1.69137  4.1708E-03
    2.3041   4340.09   1.69121  4.1565E-03
    2.3020   4344.05   1.69137  4.1428E-03
    2.3000   4347.83   1.69122  4.1420E-03
    2.2979   4351.80   1.69137  4.1321E-03
    2.2959   4355.59   1.69131  4.1240E-03
    2.2939   4359.39   1.69125  4.1330E-03
    2.2918   4363.38   1.69140  4.1512E-03
    2.2898   4367.19   1.69131  4.1524E-03
    2.2878   4371.01   1.69131  4.1529E-03
    2.2858   4374.84   1.69131  4.1432E-03
    2.2838   4378.67   1.69132  4.1373E-03
    2.2818   4382.51   1.69124  4.1326E-03
    2.2797   4386.54   1.69139  4.1326E-03
    2.2777   4390.39   1.69131  4.1477E-03
    2.2757   4394.25   1.69131  4.1422E-03
    2.2737   4398.12   1.69130  4.1257E-03
    2.2717   4401.99   1.69140  4.1178E-03
    2.2698   4405.67   1.69125  4.1279E-03
    2.2678   4409.56   1.69133  4.1418E-03
    2.2658   4413.45   1.69132  4.1447E-03
    2.2638   4417.35   1.69131  4.1407E-03
    2.2618   4421.26   1.69139  4.1396E-03
    2.2599   4424.97   1.69123  4.1432E-03
    2.2579   4428.89   1.69131  4.1407E-03
    2.2559   4432.82   1.69138  4.1300E-03
    2.2540   4436.56   1.69123  4.1287E-03
    2.2520   4440.50   1.69140  4.1270E-03
    2.2501   4444.25   1.69123  4.1475E-03
    2.2481   4448.20   1.69138  4.1499E-03
    2.2462   4451.96   1.69121  4.1324E-03
    2.2442   4455.93   1.69138  4.1215E-03
    2.2423   4459.71   1.69121  4.1187E-03
    2.2403   4463.69   1.69138  4.1266E-03
    2.2384   4467.48   1.69129  4.1306E-03
    2.2365   4471.27   1.69121  4.1247E-03
    2.2345   4475.27   1.69136  4.1215E-03
    2.2326   4479.08   1.69128  4.1183E-03
    2.2307   4482.90   1.69128  4.1187E-03
    2.2288   4486.72   1.69128  4.1007E-03
    2.2269   4490.55   1.69129  4.0856E-03
    2.2250   4494.38   1.69122  4.1020E-03
    2.2230   4498.43   1.69136  4.1110E-03
    2.2211   4502.27   1.69127  4.0963E-03
    2.2192   4506.13   1.69128  4.0847E-03
    2.2173   4509.99   1.69128  4.0948E-03
    2.2154   4513.86   1.69136  4.0948E-03
    2.2136   4517.53   1.69120  4.0839E-03
    2.2117   4521.41   1.69130  4.0798E-03
    2.2098   4525.30   1.69129  4.0948E-03
    2.2079   4529.19   1.69128  4.1012E-03
    2.2060   4533.09   1.69127  4.0980E-03
    2.2041   4537.00   1.69135  4.0941E-03
    2.2023   4540.71   1.69119  4.0888E-03
    2.2004   4544.63   1.69127  4.0864E-03
    2.1985   4548.56   1.69135  4.0858E-03
    2.1967   4552.28   1.69118  4.0804E-03
    2.1948   4556.22   1.69135  4.0693E-03
    2.1930   4559.96   1.69118  4.0809E-03
    2.1911   4563.92   1.69125  4.0794E-03
    2.1892   4567.88   1.69133  4.0589E-03
    2.1874   4571.64   1.69126  4.0520E-03
    2.1856   4575.40   1.69118  4.0565E-03
    2.1837   4579.38   1.69135  4.0599E-03
    2.1819   4583.16   1.69117  4.0542E-03
    2.1800   4587.16   1.69134  4.0559E-03
    2.1782   4590.95   1.69126  4.0599E-03
    2.1764   4594.74   1.69117  4.0518E-03
    2.1745   4598.76   1.69133  4.0362E-03
    2.1727   4602.57   1.69125  4.0339E-03
    2.1709   4606.38   1.69126  4.0465E-03
    2.1691   4610.21   1.69125  4.0473E-03
    2.1673   4614.04   1.69125  4.0292E-03
    2.1655   4617.87   1.69126  4.0337E-03
    2.1637   4621.71   1.69126  4.0452E-03
    2.1619   4625.56   1.69125  4.0386E-03
    2.1601   4629.42   1.69125  4.0399E-03
    2.1583   4633.28   1.69124  4.0381E-03
    2.1565   4637.14   1.69124  4.0273E-03
    2.1547   4641.02   1.69124  4.0230E-03
    2.1529   4644.90   1.69123  4.0204E-03
    2.1511   4648.78   1.69124  4.0031E-03
    2.1493   4652.68   1.69124  4.0038E-03
    2.1475   4656.58   1.69133  4.0048E-03
    2.1458   4660.27   1.69116  4.0040E-03
    2.1440   4664.18   1.69125  4.0108E-03
    2.1422   4668.10   1.69123  4.0025E-03
    2.1404   4672.02   1.69133  3.9868E-03
    2.1387   4675.74   1.69116  3.9945E-03
    2.1369   4679.68   1.69125  3.9995E-03
    2.1351   4683.62   1.69133  3.9974E-03
    2.1334   4687.35   1.69115  3.9963E-03
    2.1316   4691.31   1.69133  3.9934E-03
    2.1299   4695.06   1.69115  3.9804E-03
    2.1281   4699.03   1.69134  3.9755E-03
    2.1264   4702.78   1.69116  3.9875E-03
    2.1246   4706.77   1.69133  3.9874E-03
    2.1229   4710.54   1.69124  3.9811E-03
    2.1212   4714.31   1.69116  3.9799E-03
    2.1194   4718.32   1.69132  3.9971E-03
    2.1177   4722.10   1.69122  3.9945E-03
    2.1160   4725.90   1.69123  3.9714E-03
    2.1143   4729.70   1.69115  3.9555E-03
    2.1125   4733.73   1.69132  3.9590E-03
    2.1108   4737.54   1.69124  3.9628E-03
    2.1091   4741.36   1.69124  3.9764E-03
    2.1074   4745.18   1.69124  3.9811E-03
    2.1057   4749.01   1.69123  3.9725E-03
    2.1040   4752.85   1.69114  3.9645E-03
    2.1022   4756.92   1.69131  3.9458E-03
    2.1005   4760.77   1.69122  3.9436E-03
    2.0988   4764.63   1.69123  3.9465E-03
    2.0971   4768.49   1.69133  3.9517E-03
    2.0955   4772.13   1.69115  3.9687E-03
    2.0938   4776.01   1.69123  3.9724E-03
    2.0921   4779.89   1.69122  3.9528E-03
    2.0904   4783.77   1.69122  3.9403E-03
    2.0887   4787.67   1.69123  3.9390E-03
    2.0870   4791.57   1.69123  3.9458E-03
    2.0853   4795.47   1.69132  3.9577E-03
    2.0837   4799.16   1.69113  3.9548E-03
    2.0820   4803.07   1.69122  3.9447E-03
    2.0803   4807.00   1.69121  3.9418E-03
    2.0786   4810.93   1.69130  3.9498E-03
    2.0770   4814.64   1.69111  3.9357E-03
    2.0753   4818.58   1.69130  3.9147E-03
    2.0737   4822.30   1.69113  3.9196E-03
    2.0720   4826.25   1.69122  3.9306E-03
    2.0703   4830.22   1.69130  3.9253E-03
    2.0687   4833.95   1.69112  3.9169E-03
    2.0670   4837.93   1.69130  3.9220E-03
    2.0654   4841.68   1.69121  3.9180E-03
    2.0638   4845.43   1.69112  3.9152E-03
    2.0621   4849.43   1.69130  3.9139E-03
    2.0605   4853.19   1.69111  3.9073E-03
    2.0588   4857.20   1.69129  3.8987E-03
    2.0572   4860.98   1.69121  3.8927E-03
    2.0556   4864.76   1.69113  3.8976E-03
    2.0539   4868.79   1.69130  3.8967E-03
    2.0523   4872.58   1.69121  3.8914E-03
    2.0507   4876.38   1.69123  3.8969E-03
    2.0491   4880.19   1.69113  3.9066E-03
    2.0474   4884.24   1.69129  3.8989E-03
    2.0458   4888.06   1.69120  3.8837E-03
    2.0442   4891.89   1.69121  3.8748E-03
    2.0426   4895.72   1.69122  3.8792E-03
    2.0410   4899.56   1.69123  3.8832E-03
    2.0394   4903.40   1.69123  3.8914E-03
    2.0378   4907.25   1.69122  3.9002E-03
    2.0362   4911.11   1.69121  3.8967E-03
    2.0346   4914.97   1.69121  3.8874E-03
    2.0330   4918.84   1.69121  3.8940E-03
    2.0314   4922.71   1.69121  3.8956E-03
    2.0298   4926.59   1.69120  3.8799E-03
    2.0282   4930.48   1.69121  3.8711E-03
    2.0266   4934.37   1.69121  3.8775E-03
    2.0250   4938.27   1.69131  3.8887E-03
    2.0235   4941.93   1.69112  3.8865E-03
    2.0219   4945.84   1.69121  3.8854E-03
    2.0203   4949.76   1.69120  3.8887E-03
    2.0187   4953.68   1.69129  3.8863E-03
    2.0172   4957.37   1.69110  3.8762E-03
    2.0156   4961.30   1.69119  3.8691E-03
    2.0140   4965.24   1.69129  3.8672E-03
    2.0125   4968.94   1.69111  3.8718E-03
    2.0109   4972.90   1.69119  3.8759E-03
    2.0093   4976.86   1.69128  3.8749E-03
    2.0078   4980.58   1.69108  3.8629E-03
    2.0062   4984.55   1.69128  3.8581E-03
    2.0047   4988.28   1.69109  3.8467E-03
    2.0031   4992.26   1.69129  3.8378E-03
    2.0016   4996.00   1.69110  3.8429E-03
    2.0000   5000.00   1.69129  3.8491E-03
    1.9985   5003.75   1.69120  3.8575E-03
    1.9970   5007.51   1.69111  3.8629E-03
    1.9954   5011.53   1.69129  3.8594E-03
    1.9939   5015.30   1.69119  3.8694E-03
    1.9924   5019.07   1.69109  3.8630E-03
    1.9908   5023.11   1.69127  3.8484E-03
    1.9893   5026.89   1.69117  3.8458E-03
    1.9878   5030.69   1.69119  3.8449E-03
    1.9863   5034.49   1.69109  3.8466E-03
    1.9847   5038.54   1.69127  3.8455E-03
    1.9832   5042.36   1.69117  3.8387E-03
    1.9817   5046.17   1.69118  3.8389E-03
    1.9802   5049.99   1.69118  3.8370E-03
    1.9787   5053.82   1.69118  3.8429E-03
    1.9772   5057.66   1.69117  3.8473E-03
    1.9757   5061.50   1.69117  3.8392E-03
    1.9742   5065.34   1.69118  3.8321E-03
    1.9727   5069.19   1.69107  3.8414E-03
    1.9711   5073.31   1.69134  3.8400E-03
    1.9697   5076.92   1.69105  3.8229E-03
    1.9682   5080.78   1.69116  3.8132E-03
    1.9667   5084.66   1.69116  3.8158E-03
    1.9652   5088.54   1.69116  3.8268E-03
    1.9637   5092.43   1.69115  3.8224E-03
    1.9622   5096.32   1.69115  3.8098E-03
    1.9607   5100.22   1.69115  3.8118E-03
    1.9592   5104.12   1.69125  3.8048E-03
    1.9578   5107.77   1.69106  3.8063E-03
    1.9563   5111.69   1.69116  3.8160E-03
    1.9548   5115.61   1.69114  3.8072E-03
    1.9533   5119.54   1.69125  3.7977E-03
    1.9519   5123.21   1.69106  3.8019E-03
    1.9504   5127.15   1.69115  3.8066E-03
    1.9489   5131.10   1.69124  3.8092E-03
    1.9475   5134.79   1.69104  3.7955E-03
    1.9460   5138.75   1.69114  3.7914E-03
    1.9445   5142.71   1.69123  3.7909E-03
    1.9431   5146.42   1.69103  3.7817E-03
    1.9416   5150.39   1.69124  3.7742E-03
    1.9402   5154.11   1.69104  3.7764E-03
    1.9387   5158.10   1.69125  3.7795E-03
    1.9373   5161.82   1.69104  3.7753E-03
    1.9358   5165.82   1.69125  3.7702E-03
    1.9344   5169.56   1.69105  3.7744E-03
    1.9329   5173.57   1.69125  3.7764E-03
    1.9315   5177.32   1.69115  3.7832E-03
    1.9301   5181.08   1.69105  3.7931E-03
    1.9286   5185.11   1.69123  3.7814E-03
    1.9272   5188.88   1.69113  3.7658E-03
    1.9258   5192.65   1.69104  3.7552E-03
    1.9243   5196.69   1.69124  3.7664E-03
    1.9229   5200.48   1.69113  3.7762E-03
    1.9215   5204.27   1.69114  3.7728E-03
    1.9201   5208.06   1.69103  3.7612E-03
    1.9186   5212.13   1.69122  3.7548E-03
    1.9172   5215.94   1.69112  3.7486E-03
    1.9158   5219.75   1.69113  3.7451E-03
    1.9144   5223.57   1.69114  3.7404E-03
    1.9130   5227.39   1.69115  3.7512E-03
    1.9116   5231.22   1.69115  3.7675E-03
    1.9102   5235.05   1.69104  3.7651E-03
    1.9087   5239.17   1.69122  3.7638E-03
    1.9073   5243.01   1.69111  3.7491E-03
    1.9059   5246.86   1.69112  3.7501E-03
    1.9045   5250.72   1.69112  3.7504E-03
    1.9031   5254.58   1.69112  3.7532E-03
    1.9017   5258.45   1.69111  3.7631E-03
    1.9003   5262.33   1.69109  3.7415E-03
    1.8989   5266.21   1.69121  3.7111E-03
    1.8976   5269.81   1.69102  3.7177E-03
    1.8962   5273.71   1.69113  3.7305E-03
    1.8948   5277.60   1.69112  3.7341E-03
    1.8934   5281.50   1.69111  3.7242E-03
    1.8920   5285.41   1.69110  3.7222E-03
    1.8906   5289.33   1.69121  3.7180E-03
    1.8893   5292.97   1.69101  3.7129E-03
    1.8879   5296.89   1.69112  3.7127E-03
    1.8865   5300.82   1.69111  3.7177E-03
    1.8851   5304.76   1.69122  3.7246E-03
    1.8838   5308.42   1.69101  3.7237E-03
    1.8824   5312.37   1.69110  3.7213E-03
    1.8810   5316.32   1.69120  3.7111E-03
    1.8797   5320.00   1.69100  3.7043E-03
    1.8783   5323.96   1.69110  3.7043E-03
    1.8769   5327.93   1.69121  3.7041E-03
    1.8756   5331.63   1.69099  3.7068E-03
    1.8742   5335.61   1.69121  3.6944E-03
    1.8729   5339.31   1.69100  3.6862E-03
    1.8715   5343.31   1.69122  3.6931E-03
    1.8702   5347.02   1.69100  3.7014E-03
    1.8688   5351.03   1.69121  3.6951E-03
    1.8675   5354.75   1.69099  3.6918E-03
    1.8661   5358.77   1.69120  3.6880E-03
    1.8648   5362.51   1.69111  3.6926E-03
    1.8635   5366.25   1.69100  3.6973E-03
    1.8621   5370.28   1.69120  3.6957E-03
    1.8608   5374.03   1.69109  3.6845E-03
    1.8595   5377.79   1.69099  3.6880E-03
    1.8581   5381.84   1.69119  3.6863E-03
    1.8568   5385.61   1.69109  3.6757E-03
    1.8555   5389.38   1.69099  3.6677E-03
    1.8541   5393.45   1.69119  3.6667E-03
    1.8528   5397.24   1.69109  3.6735E-03
    1.8515   5401.03   1.69110  3.6851E-03
    1.8502   5404.82   1.69098  3.6671E-03
    1.8488   5408.91   1.69118  3.6457E-03
    1.8475   5412.72   1.69108  3.6547E-03
    1.8462   5416.53   1.69109  3.6461E-03
    1.8449   5420.35   1.69110  3.6473E-03
    1.8436   5424.17   1.69111  3.6578E-03
    1.8423   5428.00   1.69111  3.6693E-03
    1.8410   5431.83   1.69111  3.6730E-03
    1.8397   5435.67   1.69099  3.6646E-03
    1.8383   5439.81   1.69119  3.6609E-03
    1.8370   5443.66   1.69107  3.6646E-03
    1.8357   5447.51   1.69107  3.6561E-03
    1.8344   5451.37   1.69120  3.6439E-03
    1.8332   5454.94   1.69087  3.6358E-03
    1.8318   5459.11   1.69131  3.6387E-03
    1.8306   5462.69   1.69098  3.6440E-03
    1.8293   5466.57   1.69110  3.6550E-03
    1.8280   5470.46   1.69109  3.6569E-03
    1.8267   5474.35   1.69109  3.6461E-03
    1.8254   5478.25   1.69109  3.6488E-03
    1.8241   5482.16   1.69108  3.6554E-03
    1.8228   5486.07   1.69119  3.6563E-03
    1.8216   5489.68   1.69097  3.6530E-03
    1.8203   5493.60   1.69108  3.6468E-03
    1.8190   5497.53   1.69107  3.6402E-03
    1.8177   5501.46   1.69106  3.6338E-03
    1.8164   5505.40   1.69118  3.6358E-03
    1.8152   5509.03   1.69096  3.6387E-03
    1.8139   5512.98   1.69106  3.6400E-03
    1.8126   5516.94   1.69116  3.6279E-03
    1.8114   5520.59   1.69095  3.6078E-03
    1.8101   5524.56   1.69107  3.6087E-03
    1.8088   5528.53   1.69118  3.6162E-03
    1.8076   5532.20   1.69095  3.6219E-03
    1.8063   5536.18   1.69118  3.6168E-03
    1.8051   5539.86   1.69095  3.6052E-03
    1.8038   5543.85   1.69119  3.6065E-03
    1.8026   5547.54   1.69096  3.6195E-03
    1.8013   5551.55   1.69107  3.6142E-03
    1.8000   5555.56   1.69117  3.6063E-03
    1.7988   5559.26   1.69095  3.6136E-03
    1.7975   5563.28   1.69117  3.6105E-03
    1.7963   5567.00   1.69106  3.6142E-03
    1.7951   5570.72   1.69095  3.6091E-03
    1.7938   5574.76   1.69117  3.5975E-03
    1.7926   5578.49   1.69094  3.5963E-03
    1.7913   5582.54   1.69116  3.5919E-03
    1.7901   5586.28   1.69106  3.5891E-03
    1.7889   5590.03   1.69096  3.5858E-03
    1.7876   5594.09   1.69117  3.5966E-03
    1.7864   5597.85   1.69106  3.6019E-03
    1.7852   5601.61   1.69095  3.5950E-03
    1.7839   5605.70   1.69116  3.5876E-03
    1.7827   5609.47   1.69105  3.5869E-03
    1.7815   5613.25   1.69107  3.5928E-03
    1.7803   5617.03   1.69095  3.5880E-03
    1.7790   5621.14   1.69116  3.5891E-03
    1.7778   5624.93   1.69104  3.5919E-03
    1.7766   5628.73   1.69104  3.5895E-03
    1.7754   5632.53   1.69104  3.5756E-03
    1.7742   5636.34   1.69106  3.5737E-03
    1.7730   5640.16   1.69094  3.5805E-03
    1.7717   5644.30   1.69115  3.5715E-03
    1.7705   5648.12   1.69104  3.5703E-03
    1.7693   5651.95   1.69105  3.5712E-03
    1.7681   5655.79   1.69105  3.5728E-03
    1.7669   5659.63   1.69104  3.5834E-03
    1.7657   5663.48   1.69103  3.5840E-03
    1.7645   5667.33   1.69102  3.5745E-03
    1.7633   5671.18   1.69102  3.5501E-03
    1.7621   5675.05   1.69103  3.5384E-03
    1.7609   5678.91   1.69104  3.5444E-03
    1.7597   5682.79   1.69104  3.5375E-03
    1.7585   5686.66   1.69104  3.5452E-03
    1.7573   5690.55   1.69104  3.5415E-03
    1.7561   5694.44   1.69116  3.5455E-03
    1.7550   5698.01   1.69093  3.5503E-03
    1.7538   5701.90   1.69106  3.5417E-03
    1.7526   5705.81   1.69105  3.5521E-03
    1.7514   5709.72   1.69104  3.5622E-03
    1.7502   5713.63   1.69103  3.5488E-03
    1.7490   5717.55   1.69102  3.5461E-03
    1.7478   5721.48   1.69114  3.5364E-03
    1.7467   5725.08   1.69092  3.5254E-03
    1.7455   5729.02   1.69105  3.5305E-03
    1.7443   5732.96   1.69103  3.5389E-03
    1.7431   5736.91   1.69115  3.5298E-03
    1.7420   5740.53   1.69092  3.5250E-03
    1.7408   5744.49   1.69104  3.5320E-03
    1.7396   5748.45   1.69115  3.5397E-03
    1.7385   5752.09   1.69091  3.5259E-03
    1.7373   5756.06   1.69116  3.5146E-03
    1.7362   5759.71   1.69094  3.5280E-03
    1.7350   5763.69   1.69104  3.5448E-03
    1.7338   5767.68   1.69114  3.5452E-03
    1.7327   5771.34   1.69090  3.5272E-03
    1.7315   5775.34   1.69115  3.5239E-03
    1.7304   5779.01   1.69091  3.5252E-03
    1.7292   5783.02   1.69115  3.5157E-03
    1.7281   5786.70   1.69092  3.5182E-03
    1.7269   5790.72   1.69103  3.5322E-03
    1.7257   5794.75   1.69113  3.5298E-03
    1.7246   5798.45   1.69089  3.5188E-03
    1.7234   5802.48   1.69113  3.5126E-03
    1.7223   5806.19   1.69102  3.5111E-03
    1.7212   5809.90   1.69091  3.5131E-03
    1.7200   5813.95   1.69114  3.5009E-03
    1.7189   5817.67   1.69090  3.4992E-03
    1.7177   5821.74   1.69114  3.5144E-03
    1.7166   5825.47   1.69102  3.5107E-03
    1.7155   5829.20   1.69091  3.5023E-03
    1.7143   5833.28   1.69113  3.5045E-03
    1.7132   5837.03   1.69102  3.5051E-03
    1.7121   5840.78   1.69090  3.4999E-03
    1.7109   5844.88   1.69112  3.4985E-03
    1.7098   5848.64   1.69101  3.4910E-03
    1.7087   5852.40   1.69090  3.4857E-03
    1.7075   5856.52   1.69113  3.4846E-03
    1.7064   5860.29   1.69101  3.4930E-03
    1.7053   5864.07   1.69101  3.4954E-03
    1.7042   5867.86   1.69101  3.4895E-03
    1.7031   5871.65   1.69102  3.4853E-03
    1.7020   5875.44   1.69090  3.4849E-03
    1.7008   5879.59   1.69112  3.4783E-03
    1.6997   5883.39   1.69100  3.4756E-03
    1.6986   5887.20   1.69101  3.4796E-03
    1.6975   5891.02   1.69101  3.4803E-03
    1.6964   5894.84   1.69102  3.4721E-03
    1.6953   5898.66   1.69102  3.4749E-03
    1.6942   5902.49   1.69102  3.4849E-03
    1.6931   5906.33   1.69102  3.4873E-03
    1.6920   5910.17   1.69090  3.4666E-03
    1.6908   5914.36   1.69113  3.4582E-03
    1.6897   5918.21   1.69101  3.4712E-03
    1.6886   5922.07   1.69101  3.4873E-03
    1.6875   5925.93   1.69114  3.4811E-03
    1.6865   5929.44   1.69077  3.4662E-03
    1.6853   5933.66   1.69126  3.4677E-03
    1.6843   5937.18   1.69088  3.4811E-03
    1.6832   5941.06   1.69102  3.4844E-03
    1.6821   5944.95   1.69101  3.4739E-03
    1.6810   5948.84   1.69101  3.4681E-03
    1.6799   5952.74   1.69101  3.4761E-03
    1.6788   5956.64   1.69100  3.4822E-03
    1.6777   5960.54   1.69099  3.4725E-03
    1.6766   5964.45   1.69098  3.4525E-03
    1.6755   5968.37   1.69112  3.4505E-03
    1.6745   5971.93   1.69088  3.4602E-03
    1.6734   5975.86   1.69101  3.4514E-03
    1.6723   5979.79   1.69100  3.4505E-03
    1.6712   5983.72   1.69113  3.4613E-03
    1.6702   5987.31   1.69088  3.4587E-03
    1.6691   5991.25   1.69101  3.4609E-03
    1.6680   5995.20   1.69099  3.4668E-03
    1.6669   5999.16   1.69112  3.4613E-03
    1.6659   6002.76   1.69087  3.4641E-03
    1.6648   6006.73   1.69099  3.4637E-03
    1.6637   6010.70   1.69097  3.4435E-03
    1.6626   6014.68   1.69111  3.4360E-03
    1.6616   6018.30   1.69086  3.4467E-03
    1.6605   6022.28   1.69112  3.4597E-03
    1.6595   6025.91   1.69086  3.4525E-03
    1.6584   6029.91   1.69098  3.4401E-03
    1.6573   6033.91   1.69110  3.4434E-03
    1.6563   6037.55   1.69085  3.4322E-03
    1.6552   6041.57   1.69111  3.4271E-03
    1.6542   6045.22   1.69086  3.4401E-03
    1.6531   6049.24   1.69111  3.4353E-03
    1.6521   6052.90   1.69085  3.4192E-03
    1.6510   6056.94   1.69112  3.4250E-03
    1.6500   6060.61   1.69086  3.4459E-03
    1.6489   6064.65   1.69111  3.4331E-03
    1.6479   6068.33   1.69085  3.4269E-03
    1.6468   6072.38   1.69110  3.4267E-03
    1.6458   6076.07   1.69085  3.4212E-03
    1.6447   6080.14   1.69110  3.4175E-03
    1.6437   6083.84   1.69085  3.4106E-03
    1.6426   6087.91   1.69111  3.4060E-03
    1.6416   6091.62   1.69086  3.4146E-03
    1.6405   6095.70   1.69111  3.4261E-03
    1.6395   6099.42   1.69099  3.4327E-03
    1.6385   6103.14   1.69086  3.4327E-03
    1.6374   6107.24   1.69109  3.4390E-03
    1.6364   6110.98   1.69096  3.4302E-03
    1.6354   6114.71   1.69084  3.4122E-03
    1.6343   6118.83   1.69108  3.4073E-03
    1.6333   6122.57   1.69096  3.3998E-03
    1.6323   6126.32   1.69099  3.3958E-03
    1.6313   6130.08   1.69086  3.4029E-03
    1.6302   6134.22   1.69110  3.4104E-03
    1.6292   6137.98   1.69097  3.4097E-03
    1.6282   6141.75   1.69099  3.4067E-03
    1.6272   6145.53   1.69086  3.4133E-03
    1.6261   6149.68   1.69109  3.4192E-03
    1.6251   6153.47   1.69096  3.4095E-03
    1.6241   6157.26   1.69097  3.4088E-03
    1.6231   6161.05   1.69097  3.4122E-03
    1.6221   6164.85   1.69097  3.4020E-03
    1.6211   6168.65   1.69085  3.3958E-03
    1.6200   6172.84   1.69108  3.3954E-03
    1.6190   6176.65   1.69095  3.3901E-03
    1.6180   6180.47   1.69097  3.3917E-03
    1.6170   6184.29   1.69097  3.3851E-03
    1.6160   6188.12   1.69097  3.3943E-03
    1.6150   6191.95   1.69097  3.3952E-03
    1.6140   6195.79   1.69097  3.3892E-03
    1.6130   6199.63   1.69097  3.3921E-03
    1.6120   6203.47   1.69097  3.3910E-03
    1.6110   6207.32   1.69097  3.3919E-03
    1.6100   6211.18   1.69098  3.3787E-03
    1.6090   6215.04   1.69099  3.3688E-03
    1.6080   6218.91   1.69101  3.3855E-03
    1.6070   6222.78   1.69101  3.3976E-03
    1.6060   6226.65   1.69102  3.3992E-03
    1.6050   6230.53   1.69104  3.4077E-03
    1.6040   6234.41   1.69107  3.4012E-03
    1.6030   6238.30   1.69115  3.3934E-03
    1.6020   6242.20   1.69135  3.3901E-03
    1.6010   6246.10   1.69213  3.3851E-03
    1.6000   6250.00   1.68921  3.3791E-03
    1.5950   6269.59   1.69101  3.3741E-03
    1.5900   6289.31   1.69095  3.3674E-03
    1.5850   6309.15   1.69093  3.3553E-03
    1.5800   6329.11   1.69093  3.3476E-03
    1.5750   6349.21   1.69093  3.3383E-03
    1.5700   6369.43   1.69092  3.3344E-03
    1.5650   6389.78   1.69092  3.3300E-03
    1.5600   6410.26   1.69092  3.3247E-03
    1.5550   6430.87   1.69091  3.3168E-03
    1.5500   6451.61   1.69091  3.3101E-03
    1.5450   6472.49   1.69091  3.3086E-03
    1.5400   6493.51   1.69090  3.3009E-03
    1.5350   6514.66   1.69090  3.2969E-03
    1.5300   6535.95   1.69090  3.2938E-03
    1.5250   6557.38   1.69089  3.2925E-03
    1.5200   6578.95   1.69088  3.2822E-03
    1.5150   6600.66   1.69088  3.2736E-03
    1.5100   6622.52   1.69088  3.2692E-03
    1.5050   6644.52   1.69088  3.2641E-03
    1.5000   6666.67   1.69087  3.2659E-03
    1.4950   6688.96   1.69086  3.2573E-03
    1.4900   6711.41   1.69086  3.2485E-03
    1.4850   6734.01   1.69085  3.2421E-03
    1.4800   6756.76   1.69085  3.2354E-03
    1.4750   6779.66   1.69085  3.2315E-03
    1.4700   6802.72   1.69084  3.2216E-03
    1.4650   6825.94   1.69084  3.2207E-03
    1.4600   6849.32   1.69083  3.2150E-03
    1.4550   6872.85   1.69083  3.2073E-03
    1.4500   6896.55   1.69082  3.2018E-03
    1.4450   6920.42   1.69081  3.1894E-03
    1.4400   6944.44   1.69081  3.1859E-03
    1.4350   6968.64   1.69081  3.1768E-03
    1.4300   6993.01   1.69080  3.1698E-03
    1.4250   7017.54   1.69080  3.1654E-03
    1.4200   7042.25   1.69079  3.1573E-03
    1.4150   7067.14   1.69079  3.1531E-03
    1.4100   7092.20   1.69078  3.1434E-03
    1.4050   7117.44   1.69078  3.1363E-03
    1.4000   7142.86   1.69078  3.1288E-03
    1.3950   7168.46   1.69078  3.1249E-03
    1.3900   7194.24   1.69077  3.1238E-03
    1.3850   7220.22   1.69076  3.1152E-03
    1.3800   7246.38   1.69076  3.1103E-03
    1.3750   7272.73   1.69075  3.1044E-03
    1.3700   7299.27   1.69075  3.0955E-03
    1.3650   7326.01   1.69074  3.0883E-03
    1.3600   7352.94   1.69074  3.0788E-03
    1.3550   7380.07   1.69073  3.0709E-03
    1.3500   7407.41   1.69073  3.0656E-03
    1.3450   7434.94   1.69072  3.0577E-03
    1.3400   7462.69   1.69072  3.0495E-03
    1.3350   7490.64   1.69071  3.0398E-03
    1.3300   7518.80   1.69071  3.0339E-03
    1.3250   7547.17   1.69071  3.0270E-03
    1.3200   7575.76   1.69070  3.0219E-03
    1.3150   7604.56   1.69070  3.0156E-03
    1.3100   7633.59   1.69069  3.0096E-03
    1.3050   7662.84   1.69069  3.0032E-03
    1.3000   7692.31   1.69068  2.9971E-03
    1.2950   7722.01   1.69068  2.9915E-03
    1.2900   7751.94   1.69067  2.9834E-03
    1.2850   7782.10   1.69067  2.9748E-03
    1.2800   7812.50   1.69066  2.9684E-03
    1.2750   7843.14   1.69066  2.9625E-03
    1.2700   7874.02   1.69065  2.9545E-03
    1.2650   7905.14   1.69065  2.9444E-03
    1.2600   7936.51   1.69064  2.9369E-03
    1.2550   7968.13   1.69064  2.9283E-03
    1.2500   8000.00   1.69063  2.9200E-03
    1.2450   8032.13   1.69063  2.9125E-03
    1.2400   8064.52   1.69063  2.9054E-03
    1.2350   8097.17   1.69062  2.8990E-03
    1.2300   8130.08   1.69062  2.8918E-03
    1.2250   8163.27   1.69061  2.8851E-03
    1.2200   8196.72   1.69061  2.8768E-03
    1.2150   8230.45   1.69061  2.8713E-03
    1.2100   8264.46   1.69060  2.8662E-03
    1.2050   8298.76   1.69060  2.8591E-03
    1.2000   8333.33   1.69059  2.8523E-03
    1.1950   8368.20   1.69059  2.8461E-03
    1.1900   8403.36   1.69058  2.8411E-03
    1.1850   8438.82   1.69058  2.8325E-03
    1.1800   8474.58   1.69057  2.8283E-03
    1.1750   8510.64   1.69057  2.8241E-03
    1.1700   8547.01   1.69056  2.8171E-03
    1.1650   8583.69   1.69055  2.8111E-03
    1.1600   8620.69   1.69055  2.8025E-03
    1.1550   8658.01   1.69054  2.7970E-03
    1.1500   8695.65   1.69054  2.7926E-03
    1.1450   8733.62   1.69053  2.7862E-03
    1.1400   8771.93   1.69052  2.7823E-03
    1.1350   8810.57   1.69051  2.7736E-03
    1.1300   8849.56   1.69051  2.7668E-03
    1.1250   8888.89   1.69050  2.7600E-03
    1.1200   8928.57   1.69049  2.7501E-03
    1.1150   8968.61   1.69048  2.7410E-03
    1.1100   9009.01   1.69047  2.7313E-03
    1.1050   9049.77   1.69046  2.7249E-03
    1.1000   9090.91   1.69045  2.7133E-03
    1.0950   9132.42   1.69045  2.6985E-03
    1.0900   9174.31   1.69044  2.6853E-03
    1.0850   9216.59   1.69044  2.6736E-03
    1.0800   9259.26   1.69043  2.6635E-03
    1.0750   9302.33   1.69043  2.6555E-03
    1.0700   9345.79   1.69042  2.6428E-03
    1.0650   9389.67   1.69042  2.6326E-03
    1.0600   9433.96   1.69042  2.6251E-03
    1.0550   9478.67   1.69041  2.6168E-03
    1.0500   9523.81   1.69041  2.6035E-03
    1.0450   9569.38   1.69041  2.5956E-03
    1.0400   9615.38   1.69040  2.5905E-03
    1.0350   9661.84   1.69040  2.5842E-03
    1.0300   9708.74   1.69039  2.5778E-03
    1.0250   9756.10   1.69038  2.5701E-03
    1.0200   9803.92   1.69038  2.5571E-03
    1.0150   9852.22   1.69037  2.5469E-03
    1.0100   9900.99   1.69037  2.5381E-03
    1.0050   9950.25   1.69036  2.5278E-03
    1.0000  10000.00   1.69036  2.5207E-03
    0.9950  10050.25   1.69035  2.5114E-03
    0.9900  10101.01   1.69035  2.5004E-03
    0.9850  10152.28   1.69034  2.4927E-03
    0.9800  10204.08   1.69033  2.4786E-03
    0.9750  10256.41   1.69033  2.4683E-03
    0.9700  10309.28   1.69033  2.4581E-03
    0.9650  10362.69   1.69032  2.4506E-03
    0.9600  10416.67   1.69032  2.4443E-03
    0.9550  10471.20   1.69031  2.4363E-03
    0.9500  10526.32   1.69030  2.4266E-03
    0.9450  10582.01   1.69030  2.4094E-03
    0.9400  10638.30   1.69030  2.4028E-03
    0.9350  10695.19   1.69029  2.3914E-03
    0.9300  10752.69   1.69029  2.3760E-03
    0.9250  10810.81   1.69029  2.3696E-03
    0.9200  10869.57   1.69028  2.3579E-03
    0.9150  10928.96   1.69028  2.3469E-03
    0.9100  10989.01   1.69027  2.3359E-03
    0.9050  11049.72   1.69027  2.3246E-03
    0.9000  11111.11   1.69027  2.3143E-03
    0.8950  11173.18   1.69027  2.3052E-03
    0.8900  11235.96   1.69027  2.3013E-03
    0.8850  11299.44   1.69027  2.2918E-03
    0.8800  11363.64   1.69027  2.2858E-03
    0.8750  11428.57   1.69026  2.2806E-03
    0.8700  11494.25   1.69026  2.2729E-03
    0.8650  11560.69   1.69025  2.2651E-03
    0.8600  11627.91   1.69025  2.2581E-03
    0.8550  11695.91   1.69024  2.2515E-03
    0.8500  11764.71   1.69024  2.2446E-03
    0.8450  11834.32   1.69023  2.2369E-03
    0.8400  11904.76   1.69023  2.2294E-03
    0.8350  11976.05   1.69022  2.2211E-03
    0.8300  12048.19   1.69022  2.2131E-03
    0.8250  12121.21   1.69021  2.2047E-03
    0.8200  12195.12   1.69021  2.1964E-03
    0.8150  12269.94   1.69020  2.1887E-03
    0.8100  12345.68   1.69020  2.1796E-03
    0.8050  12422.36   1.69020  2.1722E-03
    0.8000  12500.00   1.69019  2.1636E-03
    0.7950  12578.62   1.69019  2.1556E-03
    0.7900  12658.23   1.69018  2.1472E-03
    0.7850  12738.85   1.69018  2.1383E-03
    0.7800  12820.51   1.69017  2.1298E-03
    0.7750  12903.23   1.69017  2.1217E-03
    0.7700  12987.01   1.69016  2.1147E-03
    0.7650  13071.90   1.69016  2.1071E-03
    0.7600  13157.89   1.69015  2.1005E-03
    0.7550  13245.03   1.69015  2.0946E-03
    0.7500  13333.33   1.69014  2.0867E-03
    0.7450  13422.82   1.69014  2.0812E-03
    0.7400  13513.51   1.69013  2.0745E-03
    0.7350  13605.44   1.69013  2.0692E-03
    0.7300  13698.63   1.69012  2.0624E-03
    0.7250  13793.10   1.69011  2.0563E-03
    0.7200  13888.89   1.69010  2.0492E-03
    0.7150  13986.01   1.69010  2.0411E-03
    0.7100  14084.51   1.69009  2.0331E-03
    0.7050  14184.40   1.69008  2.0239E-03
    0.7000  14285.71   1.69007  2.0150E-03
    0.6950  14388.49   1.69006  2.0052E-03
    0.6900  14492.75   1.69006  1.9961E-03
    0.6850  14598.54   1.69005  1.9857E-03
    0.6800  14705.88   1.69004  1.9753E-03
    0.6750  14814.81   1.69003  1.9653E-03
    0.6700  14925.37   1.69003  1.9543E-03
    0.6650  15037.59   1.69002  1.9438E-03
    0.6600  15151.52   1.69002  1.9333E-03
    0.6550  15267.18   1.69001  1.9235E-03
    0.6500  15384.62   1.69001  1.9136E-03
    0.6450  15503.88   1.69000  1.9043E-03
    0.6400  15625.00   1.69000  1.8960E-03
    0.6350  15748.03   1.68999  1.8872E-03
    0.6300  15873.02   1.68999  1.8795E-03
    0.6250  16000.00   1.68998  1.8718E-03
    0.6200  16129.03   1.68997  1.8645E-03
    0.6150  16260.16   1.68997  1.8572E-03
    0.6100  16393.44   1.68996  1.8511E-03
    0.6050  16528.93   1.68995  1.8445E-03
    0.6000  16666.67   1.68995  1.8376E-03
    0.5950  16806.72   1.68994  1.8304E-03
    0.5900  16949.15   1.68993  1.8223E-03
    0.5850  17094.02   1.68992  1.8140E-03
    0.5800  17241.38   1.68991  1.8042E-03
    0.5750  17391.30   1.68990  1.7948E-03
    0.5700  17543.86   1.68989  1.7850E-03
    0.5650  17699.12   1.68988  1.7755E-03
    0.5600  17857.14   1.68988  1.7661E-03
    0.5550  18018.02   1.68987  1.7562E-03
    0.5500  18181.82   1.68986  1.7473E-03
    0.5450  18348.62   1.68985  1.7385E-03
    0.5400  18518.52   1.68985  1.7308E-03
    0.5350  18691.59   1.68984  1.7234E-03
    0.5300  18867.92   1.68983  1.7161E-03
    0.5250  19047.62   1.68982  1.7095E-03
    0.5200  19230.77   1.68982  1.7037E-03
    0.5150  19417.48   1.68981  1.6971E-03
    0.5100  19607.84   1.68980  1.6917E-03
    0.5050  19801.98   1.68978  1.6863E-03
    0.5000  20000.00   1.68977  1.6807E-03
    0.4950  20202.02   1.68976  1.6746E-03
    0.4900  20408.16   1.68975  1.6680E-03
    0.4850  20618.56   1.68973  1.6602E-03
    0.4800  20833.33   1.68972  1.6523E-03
    0.4750  21052.63   1.68970  1.6447E-03
    0.4700  21276.60   1.68969  1.6367E-03
    0.4650  21505.38   1.68967  1.6271E-03
    0.4600  21739.13   1.68966  1.6182E-03
    0.4550  21978.02   1.68964  1.6083E-03
    0.4500  22222.22   1.68963  1.5991E-03
    0.4450  22471.91   1.68961  1.5889E-03
    0.4400  22727.27   1.68959  1.5781E-03
    0.4350  22988.51   1.68958  1.5679E-03
    0.4300  23255.81   1.68956  1.5586E-03
    0.4250  23529.41   1.68954  1.5474E-03
    0.4200  23809.52   1.68952  1.5334E-03
    0.4150  24096.39   1.68950  1.5210E-03
    0.4100  24390.24   1.68948  1.5089E-03
    0.4050  24691.36   1.68946  1.4978E-03
    0.4000  25000.00   1.68944  1.4873E-03
    0.3950  25316.46   1.68942  1.4756E-03
    0.3900  25641.03   1.68940  1.4666E-03
    0.3850  25974.03   1.68937  1.4553E-03
    0.3800  26315.79   1.68935  1.4436E-03
    0.3750  26666.67   1.68932  1.4313E-03
    0.3700  27027.03   1.68929  1.4193E-03
    0.3650  27397.26   1.68925  1.4084E-03
    0.3600  27777.78   1.68922  1.3948E-03
    0.3550  28169.01   1.68918  1.3774E-03
    0.3500  28571.43   1.68913  1.3591E-03
    0.3450  28985.51   1.68909  1.3365E-03
    0.3400  29411.76   1.68904  1.3135E-03
    0.3350  29850.75   1.68898  1.2864E-03
    0.3300  30303.03   1.68893  1.2594E-03
    0.3250  30769.23   1.68885  1.2407E-03
    0.3200  31250.00   1.68876  1.2212E-03
    0.3150  31746.03   1.68862  1.2025E-03
    0.3100  32258.06   1.68835  1.1840E-03
    0.3050  32786.89   1.68820  1.1658E-03
