Optical constants of Gypsum, calculated from oscillator parameters
listed in Long et al. (1993) Infrared Physics, Vol. 34, No. 2,
191-201.  gypsum pellet
Wave.          Freq.
(microns)    (cm-1)        n           k
2.5000	4000.0000	1.3673	2.7769e-3
2.5025	3996.0000	1.3672	2.8012e-3
2.5050	3992.0000	1.3670	2.8260e-3
2.5075	3988.0000	1.3668	2.8512e-3
2.5100	3984.0000	1.3666	2.8770e-3
2.5126	3980.0000	1.3664	2.9032e-3
2.5151	3976.0000	1.3662	2.9299e-3
2.5176	3972.0000	1.3660	2.9572e-3
2.5202	3968.0000	1.3658	2.9850e-3
2.5227	3964.0000	1.3656	3.0134e-3
2.5253	3960.0000	1.3654	3.0423e-3
2.5278	3956.0000	1.3652	3.0718e-3
2.5304	3952.0000	1.3650	3.1020e-3
2.5329	3948.0000	1.3647	3.1328e-3
2.5355	3944.0000	1.3645	3.1642e-3
2.5381	3940.0000	1.3643	3.1964e-3
2.5407	3936.0000	1.3641	3.2292e-3
2.5432	3932.0000	1.3639	3.2628e-3
2.5458	3928.0000	1.3636	3.2971e-3
2.5484	3924.0000	1.3634	3.3322e-3
2.5510	3920.0000	1.3631	3.3681e-3
2.5536	3916.0000	1.3629	3.4048e-3
2.5562	3912.0000	1.3627	3.4424e-3
2.5589	3908.0000	1.3624	3.4808e-3
2.5615	3904.0000	1.3622	3.5202e-3
2.5641	3900.0000	1.3619	3.5606e-3
2.5667	3896.0000	1.3616	3.6019e-3
2.5694	3892.0000	1.3614	3.6443e-3
2.5720	3888.0000	1.3611	3.6878e-3
2.5747	3884.0000	1.3608	3.7323e-3
2.5773	3880.0000	1.3606	3.7781e-3
2.5800	3876.0000	1.3603	3.8250e-3
2.5826	3872.0000	1.3600	3.8732e-3
2.5853	3868.0000	1.3597	3.9227e-3
2.5880	3864.0000	1.3594	3.9735e-3
2.5907	3860.0000	1.3591	4.0257e-3
2.5934	3856.0000	1.3588	4.0794e-3
2.5961	3852.0000	1.3585	4.1347e-3
2.5988	3848.0000	1.3582	4.1915e-3
2.6015	3844.0000	1.3579	4.2500e-3
2.6042	3840.0000	1.3575	4.3103e-3
2.6069	3836.0000	1.3572	4.3724e-3
2.6096	3832.0000	1.3568	4.4363e-3
2.6123	3828.0000	1.3565	4.5023e-3
2.6151	3824.0000	1.3561	4.5703e-3
2.6178	3820.0000	1.3558	4.6405e-3
2.6205	3816.0000	1.3554	4.7130e-3
2.6233	3812.0000	1.3550	4.7879e-3
2.6261	3808.0000	1.3547	4.8654e-3
2.6288	3804.0000	1.3543	4.9454e-3
2.6316	3800.0000	1.3539	5.0282e-3
2.6344	3796.0000	1.3535	5.1140e-3
2.6371	3792.0000	1.3531	5.2028e-3
2.6399	3788.0000	1.3526	5.2948e-3
2.6427	3784.0000	1.3522	5.3903e-3
2.6455	3780.0000	1.3518	5.4893e-3
2.6483	3776.0000	1.3513	5.5921e-3
2.6511	3772.0000	1.3509	5.6989e-3
2.6539	3768.0000	1.3504	5.8100e-3
2.6567	3764.0000	1.3499	5.9256e-3
2.6596	3760.0000	1.3494	6.0459e-3
2.6624	3756.0000	1.3489	6.1712e-3
2.6652	3752.0000	1.3484	6.3019e-3
2.6681	3748.0000	1.3479	6.4383e-3
2.6709	3744.0000	1.3473	6.5808e-3
2.6738	3740.0000	1.3467	6.7297e-3
2.6767	3736.0000	1.3462	6.8854e-3
2.6795	3732.0000	1.3456	7.0485e-3
2.6824	3728.0000	1.3450	7.2195e-3
2.6853	3724.0000	1.3444	7.3988e-3
2.6882	3720.0000	1.3437	7.5872e-3
2.6911	3716.0000	1.3431	7.7852e-3
2.6940	3712.0000	1.3424	7.9936e-3
2.6969	3708.0000	1.3417	8.2131e-3
2.6998	3704.0000	1.3410	8.4447e-3
2.7027	3700.0000	1.3403	8.6893e-3
2.7056	3696.0000	1.3395	8.9480e-3
2.7086	3692.0000	1.3387	9.2219e-3
2.7115	3688.0000	1.3379	9.5124e-3
2.7144	3684.0000	1.3371	9.8209e-3
2.7174	3680.0000	1.3362	0.0101
2.7203	3676.0000	1.3353	0.0105
2.7233	3672.0000	1.3344	0.0109
2.7263	3668.0000	1.3335	0.0113
2.7293	3664.0000	1.3325	0.0117
2.7322	3660.0000	1.3315	0.0122
2.7352	3656.0000	1.3304	0.0126
2.7382	3652.0000	1.3294	0.0132
2.7412	3648.0000	1.3282	0.0137
2.7442	3644.0000	1.3271	0.0144
2.7473	3640.0000	1.3259	0.0150
2.7503	3636.0000	1.3246	0.0158
2.7533	3632.0000	1.3233	0.0166
2.7563	3628.0000	1.3220	0.0174
2.7594	3624.0000	1.3206	0.0184
2.7624	3620.0000	1.3192	0.0194
2.7655	3616.0000	1.3177	0.0206
2.7685	3612.0000	1.3162	0.0218
2.7716	3608.0000	1.3147	0.0232
2.7747	3604.0000	1.3131	0.0247
2.7778	3600.0000	1.3115	0.0264
2.7809	3596.0000	1.3099	0.0283
2.7840	3592.0000	1.3084	0.0304
2.7871	3588.0000	1.3069	0.0328
2.7902	3584.0000	1.3054	0.0354
2.7933	3580.0000	1.3042	0.0382
2.7964	3576.0000	1.3031	0.0413
2.7996	3572.0000	1.3023	0.0447
2.8027	3568.0000	1.3018	0.0483
2.8058	3564.0000	1.3018	0.0521
2.8090	3560.0000	1.3024	0.0559
2.8121	3556.0000	1.3035	0.0597
2.8153	3552.0000	1.3053	0.0632
2.8185	3548.0000	1.3076	0.0663
2.8217	3544.0000	1.3103	0.0687
2.8249	3540.0000	1.3133	0.0703
2.8281	3536.0000	1.3162	0.0711
2.8313	3532.0000	1.3188	0.0710
2.8345	3528.0000	1.3209	0.0703
2.8377	3524.0000	1.3222	0.0691
2.8409	3520.0000	1.3227	0.0677
2.8441	3516.0000	1.3224	0.0663
2.8474	3512.0000	1.3213	0.0650
2.8506	3508.0000	1.3195	0.0640
2.8539	3504.0000	1.3171	0.0635
2.8571	3500.0000	1.3142	0.0634
2.8604	3496.0000	1.3109	0.0639
2.8637	3492.0000	1.3071	0.0650
2.8670	3488.0000	1.3030	0.0668
2.8703	3484.0000	1.2987	0.0693
2.8736	3480.0000	1.2940	0.0726
2.8769	3476.0000	1.2892	0.0768
2.8802	3472.0000	1.2843	0.0819
2.8835	3468.0000	1.2793	0.0882
2.8868	3464.0000	1.2743	0.0957
2.8902	3460.0000	1.2695	0.1046
2.8935	3456.0000	1.2652	0.1152
2.8969	3452.0000	1.2616	0.1277
2.9002	3448.0000	1.2592	0.1422
2.9036	3444.0000	1.2586	0.1588
2.9070	3440.0000	1.2606	0.1775
2.9104	3436.0000	1.2661	0.1981
2.9138	3432.0000	1.2762	0.2197
2.9172	3428.0000	1.2917	0.2412
2.9206	3424.0000	1.3132	0.2607
2.9240	3420.0000	1.3403	0.2761
2.9274	3416.0000	1.3718	0.2851
2.9308	3412.0000	1.4053	0.2864
2.9343	3408.0000	1.4380	0.2795
2.9377	3404.0000	1.4671	0.2656
2.9412	3400.0000	1.4909	0.2467
2.9446	3396.0000	1.5087	0.2249
2.9481	3392.0000	1.5208	0.2023
2.9516	3388.0000	1.5279	0.1805
2.9551	3384.0000	1.5311	0.1603
2.9586	3380.0000	1.5314	0.1422
2.9621	3376.0000	1.5298	0.1262
2.9656	3372.0000	1.5268	0.1122
2.9691	3368.0000	1.5229	0.1001
2.9727	3364.0000	1.5186	0.0896
2.9762	3360.0000	1.5140	0.0806
2.9797	3356.0000	1.5093	0.0727
2.9833	3352.0000	1.5046	0.0659
2.9869	3348.0000	1.5001	0.0600
2.9904	3344.0000	1.4957	0.0549
2.9940	3340.0000	1.4915	0.0504
2.9976	3336.0000	1.4875	0.0464
3.0012	3332.0000	1.4837	0.0429
3.0048	3328.0000	1.4801	0.0398
3.0084	3324.0000	1.4766	0.0370
3.0120	3320.0000	1.4734	0.0345
3.0157	3316.0000	1.4703	0.0323
3.0193	3312.0000	1.4674	0.0303
3.0230	3308.0000	1.4646	0.0285
3.0266	3304.0000	1.4619	0.0269
3.0303	3300.0000	1.4594	0.0254
3.0340	3296.0000	1.4570	0.0241
3.0377	3292.0000	1.4548	0.0229
3.0414	3288.0000	1.4526	0.0218
3.0451	3284.0000	1.4506	0.0208
3.0488	3280.0000	1.4486	0.0198
3.0525	3276.0000	1.4467	0.0190
3.0562	3272.0000	1.4449	0.0182
3.0600	3268.0000	1.4432	0.0174
3.0637	3264.0000	1.4416	0.0168
3.0675	3260.0000	1.4400	0.0161
3.0713	3256.0000	1.4385	0.0156
3.0750	3252.0000	1.4371	0.0150
3.0788	3248.0000	1.4357	0.0145
3.0826	3244.0000	1.4343	0.0140
3.0864	3240.0000	1.4330	0.0136
3.0902	3236.0000	1.4318	0.0132
3.0941	3232.0000	1.4306	0.0128
3.0979	3228.0000	1.4295	0.0125
3.1017	3224.0000	1.4283	0.0121
3.1056	3220.0000	1.4273	0.0118
3.1095	3216.0000	1.4262	0.0115
3.1133	3212.0000	1.4252	0.0112
3.1172	3208.0000	1.4242	0.0110
3.1211	3204.0000	1.4233	0.0107
3.1250	3200.0000	1.4224	0.0105
3.1289	3196.0000	1.4215	0.0103
3.1328	3192.0000	1.4206	0.0101
3.1368	3188.0000	1.4198	9.8660e-3
3.1407	3184.0000	1.4190	9.6813e-3
3.1447	3180.0000	1.4182	9.5066e-3
3.1486	3176.0000	1.4174	9.3413e-3
3.1526	3172.0000	1.4166	9.1848e-3
3.1566	3168.0000	1.4159	9.0366e-3
3.1606	3164.0000	1.4152	8.8963e-3
3.1646	3160.0000	1.4145	8.7633e-3
3.1686	3156.0000	1.4138	8.6372e-3
3.1726	3152.0000	1.4131	8.5177e-3
3.1766	3148.0000	1.4125	8.4043e-3
3.1807	3144.0000	1.4119	8.2967e-3
3.1847	3140.0000	1.4112	8.1947e-3
3.1888	3136.0000	1.4106	8.0979e-3
3.1928	3132.0000	1.4100	8.0060e-3
3.1969	3128.0000	1.4095	7.9188e-3
3.2010	3124.0000	1.4089	7.8361e-3
3.2051	3120.0000	1.4083	7.7576e-3
3.2092	3116.0000	1.4078	7.6831e-3
3.2134	3112.0000	1.4072	7.6124e-3
3.2175	3108.0000	1.4067	7.5454e-3
3.2216	3104.0000	1.4062	7.4819e-3
3.2258	3100.0000	1.4057	7.4216e-3
3.2300	3096.0000	1.4052	7.3646e-3
3.2342	3092.0000	1.4047	7.3105e-3
3.2383	3088.0000	1.4042	7.2594e-3
3.2425	3084.0000	1.4038	7.2110e-3
3.2468	3080.0000	1.4033	7.1653e-3
3.2510	3076.0000	1.4028	7.1221e-3
3.2552	3072.0000	1.4024	7.0813e-3
3.2595	3068.0000	1.4020	7.0429e-3
3.2637	3064.0000	1.4015	7.0067e-3
3.2680	3060.0000	1.4011	6.9726e-3
3.2723	3056.0000	1.4007	6.9407e-3
3.2765	3052.0000	1.4003	6.9107e-3
3.2808	3048.0000	1.3998	6.8827e-3
3.2852	3044.0000	1.3994	6.8565e-3
3.2895	3040.0000	1.3990	6.8320e-3
3.2938	3036.0000	1.3986	6.8093e-3
3.2982	3032.0000	1.3983	6.7883e-3
3.3025	3028.0000	1.3979	6.7689e-3
3.3069	3024.0000	1.3975	6.7510e-3
3.3113	3020.0000	1.3971	6.7346e-3
3.3156	3016.0000	1.3968	6.7197e-3
3.3201	3012.0000	1.3964	6.7062e-3
3.3245	3008.0000	1.3960	6.6940e-3
3.3289	3004.0000	1.3957	6.6832e-3
3.3333	3000.0000	1.3953	6.6736e-3
3.3378	2996.0000	1.3950	6.6653e-3
3.3422	2992.0000	1.3946	6.6582e-3
3.3467	2988.0000	1.3943	6.6523e-3
3.3512	2984.0000	1.3939	6.6476e-3
3.3557	2980.0000	1.3936	6.6439e-3
3.3602	2976.0000	1.3933	6.6414e-3
3.3647	2972.0000	1.3929	6.6398e-3
3.3693	2968.0000	1.3926	6.6394e-3
3.3738	2964.0000	1.3923	6.6399e-3
3.3784	2960.0000	1.3920	6.6415e-3
3.3829	2956.0000	1.3917	6.6439e-3
3.3875	2952.0000	1.3913	6.6474e-3
3.3921	2948.0000	1.3910	6.6517e-3
3.3967	2944.0000	1.3907	6.6570e-3
3.4014	2940.0000	1.3904	6.6631e-3
3.4060	2936.0000	1.3901	6.6701e-3
3.4106	2932.0000	1.3898	6.6780e-3
3.4153	2928.0000	1.3895	6.6867e-3
3.4200	2924.0000	1.3892	6.6962e-3
3.4247	2920.0000	1.3889	6.7065e-3
3.4294	2916.0000	1.3886	6.7176e-3
3.4341	2912.0000	1.3883	6.7295e-3
3.4388	2908.0000	1.3880	6.7422e-3
3.4435	2904.0000	1.3878	6.7556e-3
3.4483	2900.0000	1.3875	6.7698e-3
3.4530	2896.0000	1.3872	6.7846e-3
3.4578	2892.0000	1.3869	6.8002e-3
3.4626	2888.0000	1.3866	6.8166e-3
3.4674	2884.0000	1.3863	6.8336e-3
3.4722	2880.0000	1.3861	6.8513e-3
3.4771	2876.0000	1.3858	6.8697e-3
3.4819	2872.0000	1.3855	6.8888e-3
3.4868	2868.0000	1.3852	6.9086e-3
3.4916	2864.0000	1.3850	6.9291e-3
3.4965	2860.0000	1.3847	6.9502e-3
3.5014	2856.0000	1.3844	6.9719e-3
3.5063	2852.0000	1.3842	6.9943e-3
3.5112	2848.0000	1.3839	7.0174e-3
3.5162	2844.0000	1.3836	7.0411e-3
3.5211	2840.0000	1.3834	7.0654e-3
3.5261	2836.0000	1.3831	7.0904e-3
3.5311	2832.0000	1.3828	7.1160e-3
3.5361	2828.0000	1.3826	7.1422e-3
3.5411	2824.0000	1.3823	7.1691e-3
3.5461	2820.0000	1.3820	7.1966e-3
3.5511	2816.0000	1.3818	7.2246e-3
3.5562	2812.0000	1.3815	7.2533e-3
3.5613	2808.0000	1.3813	7.2827e-3
3.5663	2804.0000	1.3810	7.3126e-3
3.5714	2800.0000	1.3807	7.3431e-3
3.5765	2796.0000	1.3805	7.3743e-3
3.5817	2792.0000	1.3802	7.4060e-3
3.5868	2788.0000	1.3800	7.4384e-3
3.5920	2784.0000	1.3797	7.4714e-3
3.5971	2780.0000	1.3795	7.5050e-3
3.6023	2776.0000	1.3792	7.5392e-3
3.6075	2772.0000	1.3789	7.5740e-3
3.6127	2768.0000	1.3787	7.6094e-3
3.6179	2764.0000	1.3784	7.6454e-3
3.6232	2760.0000	1.3782	7.6820e-3
3.6284	2756.0000	1.3779	7.7192e-3
3.6337	2752.0000	1.3777	7.7571e-3
3.6390	2748.0000	1.3774	7.7956e-3
3.6443	2744.0000	1.3772	7.8346e-3
3.6496	2740.0000	1.3769	7.8743e-3
3.6550	2736.0000	1.3767	7.9146e-3
3.6603	2732.0000	1.3764	7.9556e-3
3.6657	2728.0000	1.3762	7.9971e-3
3.6711	2724.0000	1.3759	8.0393e-3
3.6765	2720.0000	1.3757	8.0821e-3
3.6819	2716.0000	1.3754	8.1256e-3
3.6873	2712.0000	1.3752	8.1696e-3
3.6928	2708.0000	1.3749	8.2144e-3
3.6982	2704.0000	1.3747	8.2597e-3
3.7037	2700.0000	1.3744	8.3057e-3
3.7092	2696.0000	1.3742	8.3524e-3
3.7147	2692.0000	1.3739	8.3997e-3
3.7202	2688.0000	1.3737	8.4477e-3
3.7258	2684.0000	1.3734	8.4963e-3
3.7313	2680.0000	1.3732	8.5456e-3
3.7369	2676.0000	1.3729	8.5955e-3
3.7425	2672.0000	1.3727	8.6462e-3
3.7481	2668.0000	1.3724	8.6975e-3
3.7538	2664.0000	1.3722	8.7495e-3
3.7594	2660.0000	1.3719	8.8022e-3
3.7651	2656.0000	1.3717	8.8556e-3
3.7707	2652.0000	1.3714	8.9097e-3
3.7764	2648.0000	1.3712	8.9645e-3
3.7821	2644.0000	1.3709	9.0200e-3
3.7879	2640.0000	1.3706	9.0762e-3
3.7936	2636.0000	1.3704	9.1332e-3
3.7994	2632.0000	1.3701	9.1909e-3
3.8052	2628.0000	1.3699	9.2493e-3
3.8110	2624.0000	1.3696	9.3085e-3
3.8168	2620.0000	1.3694	9.3685e-3
3.8226	2616.0000	1.3691	9.4292e-3
3.8285	2612.0000	1.3689	9.4906e-3
3.8344	2608.0000	1.3686	9.5529e-3
3.8402	2604.0000	1.3684	9.6159e-3
3.8462	2600.0000	1.3681	9.6797e-3
3.8521	2596.0000	1.3678	9.7443e-3
3.8580	2592.0000	1.3676	9.8097e-3
3.8640	2588.0000	1.3673	9.8759e-3
3.8700	2584.0000	1.3671	9.9430e-3
3.8760	2580.0000	1.3668	0.0100
3.8820	2576.0000	1.3666	0.0101
3.8880	2572.0000	1.3663	0.0101
3.8941	2568.0000	1.3660	0.0102
3.9002	2564.0000	1.3658	0.0103
3.9063	2560.0000	1.3655	0.0104
3.9124	2556.0000	1.3653	0.0104
3.9185	2552.0000	1.3650	0.0105
3.9246	2548.0000	1.3647	0.0106
3.9308	2544.0000	1.3645	0.0107
3.9370	2540.0000	1.3642	0.0107
3.9432	2536.0000	1.3639	0.0108
3.9494	2532.0000	1.3637	0.0109
3.9557	2528.0000	1.3634	0.0110
3.9620	2524.0000	1.3631	0.0111
3.9683	2520.0000	1.3629	0.0111
3.9746	2516.0000	1.3626	0.0112
3.9809	2512.0000	1.3623	0.0113
3.9872	2508.0000	1.3621	0.0114
3.9936	2504.0000	1.3618	0.0115
4.0000	2500.0000	1.3615	0.0116
4.0064	2496.0000	1.3612	0.0116
4.0128	2492.0000	1.3610	0.0117
4.0193	2488.0000	1.3607	0.0118
4.0258	2484.0000	1.3604	0.0119
4.0323	2480.0000	1.3601	0.0120
4.0388	2476.0000	1.3599	0.0121
4.0453	2472.0000	1.3596	0.0122
4.0519	2468.0000	1.3593	0.0123
4.0584	2464.0000	1.3590	0.0124
4.0650	2460.0000	1.3588	0.0125
4.0717	2456.0000	1.3585	0.0126
4.0783	2452.0000	1.3582	0.0127
4.0850	2448.0000	1.3579	0.0128
4.0917	2444.0000	1.3576	0.0129
4.0984	2440.0000	1.3573	0.0130
4.1051	2436.0000	1.3571	0.0131
4.1118	2432.0000	1.3568	0.0132
4.1186	2428.0000	1.3565	0.0133
4.1254	2424.0000	1.3562	0.0134
4.1322	2420.0000	1.3559	0.0135
4.1391	2416.0000	1.3556	0.0136
4.1459	2412.0000	1.3553	0.0138
4.1528	2408.0000	1.3550	0.0139
4.1597	2404.0000	1.3547	0.0140
4.1667	2400.0000	1.3544	0.0141
4.1736	2396.0000	1.3541	0.0142
4.1806	2392.0000	1.3538	0.0143
4.1876	2388.0000	1.3535	0.0145
4.1946	2384.0000	1.3532	0.0146
4.2017	2380.0000	1.3529	0.0147
4.2088	2376.0000	1.3526	0.0148
4.2159	2372.0000	1.3523	0.0150
4.2230	2368.0000	1.3520	0.0151
4.2301	2364.0000	1.3517	0.0152
4.2373	2360.0000	1.3514	0.0154
4.2445	2356.0000	1.3511	0.0155
4.2517	2352.0000	1.3508	0.0156
4.2589	2348.0000	1.3505	0.0158
4.2662	2344.0000	1.3502	0.0159
4.2735	2340.0000	1.3499	0.0161
4.2808	2336.0000	1.3496	0.0162
4.2882	2332.0000	1.3492	0.0164
4.2955	2328.0000	1.3489	0.0165
4.3029	2324.0000	1.3486	0.0167
4.3103	2320.0000	1.3483	0.0168
4.3178	2316.0000	1.3480	0.0170
4.3253	2312.0000	1.3477	0.0171
4.3328	2308.0000	1.3473	0.0173
4.3403	2304.0000	1.3470	0.0174
4.3478	2300.0000	1.3467	0.0176
4.3554	2296.0000	1.3464	0.0178
4.3630	2292.0000	1.3460	0.0179
4.3706	2288.0000	1.3457	0.0181
4.3783	2284.0000	1.3454	0.0183
4.3860	2280.0000	1.3450	0.0184
4.3937	2276.0000	1.3447	0.0186
4.4014	2272.0000	1.3444	0.0188
4.4092	2268.0000	1.3440	0.0190
4.4170	2264.0000	1.3437	0.0191
4.4248	2260.0000	1.3434	0.0193
4.4326	2256.0000	1.3430	0.0195
4.4405	2252.0000	1.3427	0.0197
4.4484	2248.0000	1.3424	0.0199
4.4563	2244.0000	1.3420	0.0201
4.4643	2240.0000	1.3417	0.0203
4.4723	2236.0000	1.3413	0.0205
4.4803	2232.0000	1.3410	0.0207
4.4883	2228.0000	1.3406	0.0209
4.4964	2224.0000	1.3403	0.0211
4.5045	2220.0000	1.3399	0.0213
4.5126	2216.0000	1.3396	0.0215
4.5208	2212.0000	1.3392	0.0217
4.5290	2208.0000	1.3389	0.0219
4.5372	2204.0000	1.3385	0.0222
4.5455	2200.0000	1.3382	0.0224
4.5537	2196.0000	1.3378	0.0226
4.5620	2192.0000	1.3375	0.0228
4.5704	2188.0000	1.3371	0.0231
4.5788	2184.0000	1.3368	0.0233
4.5872	2180.0000	1.3364	0.0235
4.5956	2176.0000	1.3360	0.0238
4.6041	2172.0000	1.3357	0.0240
4.6125	2168.0000	1.3353	0.0243
4.6211	2164.0000	1.3350	0.0245
4.6296	2160.0000	1.3346	0.0248
4.6382	2156.0000	1.3342	0.0250
4.6468	2152.0000	1.3339	0.0253
4.6555	2148.0000	1.3335	0.0255
4.6642	2144.0000	1.3331	0.0258
4.6729	2140.0000	1.3328	0.0261
4.6816	2136.0000	1.3324	0.0263
4.6904	2132.0000	1.3320	0.0266
4.6992	2128.0000	1.3316	0.0269
4.7081	2124.0000	1.3313	0.0272
4.7170	2120.0000	1.3309	0.0275
4.7259	2116.0000	1.3305	0.0278
4.7348	2112.0000	1.3301	0.0281
4.7438	2108.0000	1.3298	0.0284
4.7529	2104.0000	1.3294	0.0287
4.7619	2100.0000	1.3290	0.0290
4.7710	2096.0000	1.3287	0.0293
4.7801	2092.0000	1.3283	0.0296
4.7893	2088.0000	1.3279	0.0299
4.7985	2084.0000	1.3275	0.0302
4.8077	2080.0000	1.3271	0.0305
4.8170	2076.0000	1.3268	0.0309
4.8263	2072.0000	1.3264	0.0312
4.8356	2068.0000	1.3260	0.0315
4.8450	2064.0000	1.3256	0.0319
4.8544	2060.0000	1.3253	0.0322
4.8638	2056.0000	1.3249	0.0326
4.8733	2052.0000	1.3245	0.0329
4.8828	2048.0000	1.3241	0.0333
4.8924	2044.0000	1.3238	0.0336
4.9020	2040.0000	1.3234	0.0340
4.9116	2036.0000	1.3230	0.0344
4.9213	2032.0000	1.3226	0.0347
4.9310	2028.0000	1.3222	0.0351
4.9407	2024.0000	1.3219	0.0355
4.9505	2020.0000	1.3215	0.0359
4.9603	2016.0000	1.3211	0.0363
4.9702	2012.0000	1.3208	0.0367
4.9801	2008.0000	1.3204	0.0371
4.9900	2004.0000	1.3200	0.0375
5.0000	2000.0000	1.3196	0.0379
5.0050	1998.0000	1.3195	0.0381
5.0100	1996.0000	1.3193	0.0383
5.0150	1994.0000	1.3191	0.0385
5.0201	1992.0000	1.3189	0.0387
5.0251	1990.0000	1.3187	0.0389
5.0302	1988.0000	1.3185	0.0391
5.0352	1986.0000	1.3184	0.0393
5.0403	1984.0000	1.3182	0.0395
5.0454	1982.0000	1.3180	0.0397
5.0505	1980.0000	1.3178	0.0399
5.0556	1978.0000	1.3176	0.0402
5.0607	1976.0000	1.3174	0.0404
5.0659	1974.0000	1.3173	0.0406
5.0710	1972.0000	1.3171	0.0408
5.0761	1970.0000	1.3169	0.0410
5.0813	1968.0000	1.3167	0.0412
5.0865	1966.0000	1.3165	0.0415
5.0916	1964.0000	1.3164	0.0417
5.0968	1962.0000	1.3162	0.0419
5.1020	1960.0000	1.3160	0.0421
5.1073	1958.0000	1.3158	0.0423
5.1125	1956.0000	1.3157	0.0426
5.1177	1954.0000	1.3155	0.0428
5.1230	1952.0000	1.3153	0.0430
5.1282	1950.0000	1.3151	0.0432
5.1335	1948.0000	1.3149	0.0435
5.1387	1946.0000	1.3148	0.0437
5.1440	1944.0000	1.3146	0.0439
5.1493	1942.0000	1.3144	0.0441
5.1546	1940.0000	1.3142	0.0444
5.1600	1938.0000	1.3141	0.0446
5.1653	1936.0000	1.3139	0.0448
5.1706	1934.0000	1.3137	0.0451
5.1760	1932.0000	1.3136	0.0453
5.1813	1930.0000	1.3134	0.0455
5.1867	1928.0000	1.3132	0.0458
5.1921	1926.0000	1.3130	0.0460
5.1975	1924.0000	1.3129	0.0462
5.2029	1922.0000	1.3127	0.0465
5.2083	1920.0000	1.3125	0.0467
5.2138	1918.0000	1.3124	0.0469
5.2192	1916.0000	1.3122	0.0472
5.2247	1914.0000	1.3120	0.0474
5.2301	1912.0000	1.3119	0.0477
5.2356	1910.0000	1.3117	0.0479
5.2411	1908.0000	1.3115	0.0481
5.2466	1906.0000	1.3114	0.0484
5.2521	1904.0000	1.3112	0.0486
5.2576	1902.0000	1.3110	0.0489
5.2632	1900.0000	1.3109	0.0491
5.2687	1898.0000	1.3107	0.0493
5.2743	1896.0000	1.3106	0.0496
5.2798	1894.0000	1.3104	0.0498
5.2854	1892.0000	1.3102	0.0501
5.2910	1890.0000	1.3101	0.0503
5.2966	1888.0000	1.3099	0.0505
5.3022	1886.0000	1.3097	0.0508
5.3079	1884.0000	1.3096	0.0510
5.3135	1882.0000	1.3094	0.0513
5.3191	1880.0000	1.3093	0.0515
5.3248	1878.0000	1.3091	0.0518
5.3305	1876.0000	1.3090	0.0520
5.3362	1874.0000	1.3088	0.0523
5.3419	1872.0000	1.3086	0.0525
5.3476	1870.0000	1.3085	0.0527
5.3533	1868.0000	1.3083	0.0530
5.3591	1866.0000	1.3082	0.0532
5.3648	1864.0000	1.3080	0.0535
5.3706	1862.0000	1.3079	0.0537
5.3763	1860.0000	1.3077	0.0540
5.3821	1858.0000	1.3075	0.0542
5.3879	1856.0000	1.3074	0.0545
5.3937	1854.0000	1.3072	0.0547
5.3996	1852.0000	1.3071	0.0550
5.4054	1850.0000	1.3069	0.0552
5.4113	1848.0000	1.3068	0.0554
5.4171	1846.0000	1.3066	0.0557
5.4230	1844.0000	1.3065	0.0559
5.4289	1842.0000	1.3063	0.0562
5.4348	1840.0000	1.3061	0.0564
5.4407	1838.0000	1.3060	0.0567
5.4466	1836.0000	1.3058	0.0569
5.4526	1834.0000	1.3057	0.0571
5.4585	1832.0000	1.3055	0.0574
5.4645	1830.0000	1.3054	0.0576
5.4705	1828.0000	1.3052	0.0579
5.4765	1826.0000	1.3051	0.0581
5.4825	1824.0000	1.3049	0.0583
5.4885	1822.0000	1.3047	0.0586
5.4945	1820.0000	1.3046	0.0588
5.5006	1818.0000	1.3044	0.0590
5.5066	1816.0000	1.3043	0.0593
5.5127	1814.0000	1.3041	0.0595
5.5188	1812.0000	1.3039	0.0597
5.5249	1810.0000	1.3038	0.0600
5.5310	1808.0000	1.3036	0.0602
5.5371	1806.0000	1.3034	0.0604
5.5432	1804.0000	1.3033	0.0607
5.5494	1802.0000	1.3031	0.0609
5.5556	1800.0000	1.3029	0.0611
5.5617	1798.0000	1.3028	0.0614
5.5679	1796.0000	1.3026	0.0616
5.5741	1794.0000	1.3024	0.0618
5.5804	1792.0000	1.3022	0.0620
5.5866	1790.0000	1.3021	0.0623
5.5928	1788.0000	1.3019	0.0625
5.5991	1786.0000	1.3017	0.0627
5.6054	1784.0000	1.3015	0.0629
5.6117	1782.0000	1.3013	0.0631
5.6180	1780.0000	1.3011	0.0634
5.6243	1778.0000	1.3009	0.0636
5.6306	1776.0000	1.3007	0.0638
5.6370	1774.0000	1.3005	0.0640
5.6433	1772.0000	1.3003	0.0642
5.6497	1770.0000	1.3001	0.0644
5.6561	1768.0000	1.2999	0.0646
5.6625	1766.0000	1.2997	0.0649
5.6689	1764.0000	1.2995	0.0651
5.6754	1762.0000	1.2993	0.0653
5.6818	1760.0000	1.2990	0.0655
5.6883	1758.0000	1.2988	0.0657
5.6948	1756.0000	1.2985	0.0659
5.7013	1754.0000	1.2983	0.0661
5.7078	1752.0000	1.2980	0.0663
5.7143	1750.0000	1.2978	0.0665
5.7208	1748.0000	1.2975	0.0667
5.7274	1746.0000	1.2972	0.0669
5.7339	1744.0000	1.2970	0.0671
5.7405	1742.0000	1.2967	0.0673
5.7471	1740.0000	1.2964	0.0675
5.7537	1738.0000	1.2961	0.0677
5.7604	1736.0000	1.2957	0.0679
5.7670	1734.0000	1.2954	0.0681
5.7737	1732.0000	1.2951	0.0683
5.7803	1730.0000	1.2947	0.0685
5.7870	1728.0000	1.2944	0.0687
5.7937	1726.0000	1.2940	0.0688
5.8005	1724.0000	1.2936	0.0690
5.8072	1722.0000	1.2932	0.0692
5.8140	1720.0000	1.2928	0.0694
5.8207	1718.0000	1.2923	0.0696
5.8275	1716.0000	1.2919	0.0698
5.8343	1714.0000	1.2914	0.0700
5.8411	1712.0000	1.2909	0.0702
5.8480	1710.0000	1.2904	0.0704
5.8548	1708.0000	1.2899	0.0707
5.8617	1706.0000	1.2893	0.0709
5.8685	1704.0000	1.2887	0.0711
5.8754	1702.0000	1.2881	0.0713
5.8824	1700.0000	1.2875	0.0715
5.8893	1698.0000	1.2868	0.0718
5.8962	1696.0000	1.2861	0.0720
5.9032	1694.0000	1.2854	0.0723
5.9102	1692.0000	1.2846	0.0725
5.9172	1690.0000	1.2838	0.0728
5.9242	1688.0000	1.2829	0.0731
5.9312	1686.0000	1.2820	0.0734
5.9382	1684.0000	1.2810	0.0737
5.9453	1682.0000	1.2800	0.0740
5.9524	1680.0000	1.2789	0.0744
5.9595	1678.0000	1.2777	0.0748
5.9666	1676.0000	1.2765	0.0752
5.9737	1674.0000	1.2751	0.0757
5.9809	1672.0000	1.2737	0.0762
5.9880	1670.0000	1.2721	0.0767
5.9952	1668.0000	1.2705	0.0773
6.0024	1666.0000	1.2687	0.0780
6.0096	1664.0000	1.2667	0.0787
6.0168	1662.0000	1.2646	0.0796
6.0241	1660.0000	1.2623	0.0805
6.0314	1658.0000	1.2597	0.0816
6.0386	1656.0000	1.2570	0.0829
6.0459	1654.0000	1.2539	0.0844
6.0533	1652.0000	1.2505	0.0862
6.0606	1650.0000	1.2466	0.0883
6.0680	1648.0000	1.2424	0.0908
6.0753	1646.0000	1.2376	0.0939
6.0827	1644.0000	1.2322	0.0978
6.0901	1642.0000	1.2260	0.1026
6.0976	1640.0000	1.2191	0.1089
6.1050	1638.0000	1.2113	0.1170
6.1125	1636.0000	1.2026	0.1279
6.1200	1634.0000	1.1933	0.1428
6.1275	1632.0000	1.1844	0.1634
6.1350	1630.0000	1.1780	0.1920
6.1425	1628.0000	1.1793	0.2309
6.1501	1626.0000	1.1977	0.2788
6.1576	1624.0000	1.2440	0.3244
6.1652	1622.0000	1.3169	0.3439
6.1728	1620.0000	1.3900	0.3217
6.1805	1618.0000	1.4356	0.2722
6.1881	1616.0000	1.4513	0.2213
6.1958	1614.0000	1.4494	0.1809
6.2035	1612.0000	1.4403	0.1519
6.2112	1610.0000	1.4291	0.1316
6.2189	1608.0000	1.4181	0.1172
6.2267	1606.0000	1.4082	0.1069
6.2344	1604.0000	1.3993	0.0993
6.2422	1602.0000	1.3915	0.0937
6.2500	1600.0000	1.3847	0.0893
6.2578	1598.0000	1.3787	0.0859
6.2657	1596.0000	1.3734	0.0832
6.2735	1594.0000	1.3687	0.0810
6.2814	1592.0000	1.3645	0.0793
6.2893	1590.0000	1.3608	0.0778
6.2972	1588.0000	1.3573	0.0766
6.3052	1586.0000	1.3542	0.0755
6.3131	1584.0000	1.3514	0.0746
6.3211	1582.0000	1.3488	0.0739
6.3291	1580.0000	1.3463	0.0732
6.3371	1578.0000	1.3441	0.0726
6.3452	1576.0000	1.3420	0.0721
6.3532	1574.0000	1.3400	0.0716
6.3613	1572.0000	1.3382	0.0712
6.3694	1570.0000	1.3365	0.0708
6.3776	1568.0000	1.3348	0.0704
6.3857	1566.0000	1.3332	0.0701
6.3939	1564.0000	1.3317	0.0698
6.4020	1562.0000	1.3303	0.0695
6.4103	1560.0000	1.3289	0.0693
6.4185	1558.0000	1.3276	0.0690
6.4267	1556.0000	1.3264	0.0688
6.4350	1554.0000	1.3251	0.0686
6.4433	1552.0000	1.3239	0.0684
6.4516	1550.0000	1.3228	0.0682
6.4599	1548.0000	1.3217	0.0680
6.4683	1546.0000	1.3206	0.0678
6.4767	1544.0000	1.3195	0.0676
6.4851	1542.0000	1.3184	0.0675
6.4935	1540.0000	1.3174	0.0673
6.5020	1538.0000	1.3164	0.0671
6.5104	1536.0000	1.3154	0.0670
6.5189	1534.0000	1.3144	0.0668
6.5274	1532.0000	1.3135	0.0667
6.5359	1530.0000	1.3125	0.0665
6.5445	1528.0000	1.3116	0.0664
6.5531	1526.0000	1.3106	0.0663
6.5617	1524.0000	1.3097	0.0661
6.5703	1522.0000	1.3088	0.0660
6.5789	1520.0000	1.3078	0.0659
6.5876	1518.0000	1.3069	0.0657
6.5963	1516.0000	1.3060	0.0656
6.6050	1514.0000	1.3051	0.0655
6.6138	1512.0000	1.3042	0.0653
6.6225	1510.0000	1.3033	0.0652
6.6313	1508.0000	1.3024	0.0651
6.6401	1506.0000	1.3015	0.0650
6.6489	1504.0000	1.3005	0.0649
6.6578	1502.0000	1.2996	0.0647
6.6667	1500.0000	1.2987	0.0646
6.6756	1498.0000	1.2978	0.0645
6.6845	1496.0000	1.2969	0.0644
6.6934	1494.0000	1.2960	0.0643
6.7024	1492.0000	1.2950	0.0642
6.7114	1490.0000	1.2941	0.0641
6.7204	1488.0000	1.2931	0.0640
6.7295	1486.0000	1.2922	0.0639
6.7385	1484.0000	1.2913	0.0638
6.7476	1482.0000	1.2903	0.0637
6.7568	1480.0000	1.2893	0.0636
6.7659	1478.0000	1.2884	0.0635
6.7751	1476.0000	1.2874	0.0634
6.7843	1474.0000	1.2864	0.0633
6.7935	1472.0000	1.2854	0.0632
6.8027	1470.0000	1.2844	0.0631
6.8120	1468.0000	1.2834	0.0630
6.8213	1466.0000	1.2823	0.0629
6.8306	1464.0000	1.2813	0.0629
6.8399	1462.0000	1.2803	0.0628
6.8493	1460.0000	1.2792	0.0627
6.8587	1458.0000	1.2781	0.0626
6.8681	1456.0000	1.2771	0.0626
6.8776	1454.0000	1.2760	0.0625
6.8871	1452.0000	1.2749	0.0624
6.8966	1450.0000	1.2738	0.0623
6.9061	1448.0000	1.2726	0.0623
6.9156	1446.0000	1.2715	0.0622
6.9252	1444.0000	1.2704	0.0622
6.9348	1442.0000	1.2692	0.0621
6.9444	1440.0000	1.2680	0.0621
6.9541	1438.0000	1.2668	0.0620
6.9638	1436.0000	1.2656	0.0620
6.9735	1434.0000	1.2644	0.0619
6.9832	1432.0000	1.2632	0.0619
6.9930	1430.0000	1.2619	0.0619
7.0028	1428.0000	1.2606	0.0618
7.0126	1426.0000	1.2593	0.0618
7.0225	1424.0000	1.2580	0.0618
7.0323	1422.0000	1.2567	0.0617
7.0423	1420.0000	1.2554	0.0617
7.0522	1418.0000	1.2540	0.0617
7.0621	1416.0000	1.2527	0.0617
7.0721	1414.0000	1.2513	0.0617
7.0822	1412.0000	1.2499	0.0617
7.0922	1410.0000	1.2484	0.0617
7.1023	1408.0000	1.2470	0.0617
7.1124	1406.0000	1.2455	0.0617
7.1225	1404.0000	1.2440	0.0618
7.1327	1402.0000	1.2425	0.0618
7.1429	1400.0000	1.2410	0.0618
7.1531	1398.0000	1.2394	0.0619
7.1633	1396.0000	1.2378	0.0619
7.1736	1394.0000	1.2362	0.0619
7.1839	1392.0000	1.2346	0.0620
7.1942	1390.0000	1.2329	0.0621
7.2046	1388.0000	1.2312	0.0621
7.2150	1386.0000	1.2295	0.0622
7.2254	1384.0000	1.2278	0.0623
7.2359	1382.0000	1.2260	0.0624
7.2464	1380.0000	1.2243	0.0625
7.2569	1378.0000	1.2224	0.0625
7.2674	1376.0000	1.2206	0.0627
7.2780	1374.0000	1.2187	0.0628
7.2886	1372.0000	1.2168	0.0629
7.2993	1370.0000	1.2149	0.0630
7.3099	1368.0000	1.2129	0.0632
7.3206	1366.0000	1.2109	0.0633
7.3314	1364.0000	1.2089	0.0635
7.3421	1362.0000	1.2068	0.0636
7.3529	1360.0000	1.2047	0.0638
7.3638	1358.0000	1.2025	0.0640
7.3746	1356.0000	1.2004	0.0642
7.3855	1354.0000	1.1981	0.0644
7.3964	1352.0000	1.1959	0.0646
7.4074	1350.0000	1.1936	0.0649
7.4184	1348.0000	1.1912	0.0651
7.4294	1346.0000	1.1889	0.0654
7.4405	1344.0000	1.1864	0.0656
7.4516	1342.0000	1.1839	0.0659
7.4627	1340.0000	1.1814	0.0662
7.4738	1338.0000	1.1789	0.0665
7.4850	1336.0000	1.1762	0.0668
7.4963	1334.0000	1.1736	0.0672
7.5075	1332.0000	1.1708	0.0675
7.5188	1330.0000	1.1681	0.0679
7.5301	1328.0000	1.1652	0.0683
7.5415	1326.0000	1.1623	0.0687
7.5529	1324.0000	1.1594	0.0691
7.5643	1322.0000	1.1564	0.0696
7.5758	1320.0000	1.1533	0.0701
7.5873	1318.0000	1.1501	0.0705
7.5988	1316.0000	1.1469	0.0711
7.6104	1314.0000	1.1436	0.0716
7.6220	1312.0000	1.1403	0.0722
7.6336	1310.0000	1.1368	0.0727
7.6453	1308.0000	1.1333	0.0734
7.6570	1306.0000	1.1297	0.0740
7.6687	1304.0000	1.1261	0.0747
7.6805	1302.0000	1.1223	0.0754
7.6923	1300.0000	1.1185	0.0761
7.7042	1298.0000	1.1145	0.0769
7.7160	1296.0000	1.1105	0.0777
7.7280	1294.0000	1.1063	0.0785
7.7399	1292.0000	1.1021	0.0794
7.7519	1290.0000	1.0977	0.0803
7.7640	1288.0000	1.0933	0.0813
7.7760	1286.0000	1.0887	0.0823
7.7882	1284.0000	1.0840	0.0834
7.8003	1282.0000	1.0792	0.0845
7.8125	1280.0000	1.0742	0.0857
7.8247	1278.0000	1.0691	0.0869
7.8370	1276.0000	1.0638	0.0882
7.8493	1274.0000	1.0584	0.0896
7.8616	1272.0000	1.0529	0.0910
7.8740	1270.0000	1.0472	0.0926
7.8864	1268.0000	1.0413	0.0941
7.8989	1266.0000	1.0352	0.0958
7.9114	1264.0000	1.0290	0.0976
7.9239	1262.0000	1.0225	0.0995
7.9365	1260.0000	1.0158	0.1015
7.9491	1258.0000	1.0089	0.1036
7.9618	1256.0000	1.0018	0.1058
7.9745	1254.0000	0.9945	0.1081
7.9872	1252.0000	0.9869	0.1106
8.0000	1250.0000	0.9790	0.1133
8.0128	1248.0000	0.9709	0.1161
8.0257	1246.0000	0.9624	0.1191
8.0386	1244.0000	0.9537	0.1223
8.0515	1242.0000	0.9446	0.1257
8.0645	1240.0000	0.9352	0.1294
8.0775	1238.0000	0.9254	0.1333
8.0906	1236.0000	0.9152	0.1375
8.1037	1234.0000	0.9046	0.1420
8.1169	1232.0000	0.8936	0.1469
8.1301	1230.0000	0.8821	0.1521
8.1433	1228.0000	0.8702	0.1578
8.1566	1226.0000	0.8577	0.1639
8.1699	1224.0000	0.8447	0.1706
8.1833	1222.0000	0.8312	0.1778
8.1967	1220.0000	0.8171	0.1857
8.2102	1218.0000	0.8023	0.1944
8.2237	1216.0000	0.7869	0.2039
8.2372	1214.0000	0.7709	0.2143
8.2508	1212.0000	0.7542	0.2258
8.2645	1210.0000	0.7368	0.2385
8.2781	1208.0000	0.7188	0.2526
8.2919	1206.0000	0.7002	0.2682
8.3056	1204.0000	0.6811	0.2855
8.3195	1202.0000	0.6616	0.3048
8.3333	1200.0000	0.6418	0.3263
8.3472	1198.0000	0.6220	0.3501
8.3612	1196.0000	0.6024	0.3765
8.3752	1194.0000	0.5834	0.4055
8.3893	1192.0000	0.5653	0.4372
8.4034	1190.0000	0.5486	0.4715
8.4175	1188.0000	0.5335	0.5083
8.4317	1186.0000	0.5204	0.5474
8.4459	1184.0000	0.5094	0.5886
8.4602	1182.0000	0.5006	0.6316
8.4746	1180.0000	0.4943	0.6762
8.4890	1178.0000	0.4903	0.7223
8.5034	1176.0000	0.4886	0.7697
8.5179	1174.0000	0.4893	0.8184
8.5324	1172.0000	0.4924	0.8683
8.5470	1170.0000	0.4979	0.9195
8.5616	1168.0000	0.5059	0.9719
8.5763	1166.0000	0.5165	1.0258
8.5911	1164.0000	0.5298	1.0811
8.6059	1162.0000	0.5461	1.1381
8.6207	1160.0000	0.5657	1.1967
8.6356	1158.0000	0.5889	1.2571
8.6505	1156.0000	0.6162	1.3194
8.6655	1154.0000	0.6481	1.3837
8.6806	1152.0000	0.6853	1.4500
8.6957	1150.0000	0.7287	1.5182
8.7108	1148.0000	0.7793	1.5881
8.7260	1146.0000	0.8383	1.6594
8.7413	1144.0000	0.9070	1.7313
8.7566	1142.0000	0.9872	1.8029
8.7719	1140.0000	1.0805	1.8723
8.7873	1138.0000	1.1887	1.9372
8.8028	1136.0000	1.3134	1.9940
8.8183	1134.0000	1.4552	2.0380
8.8339	1132.0000	1.6134	2.0631
8.8496	1130.0000	1.7846	2.0627
8.8652	1128.0000	1.9623	2.0308
8.8810	1126.0000	2.1370	1.9636
8.8968	1124.0000	2.2969	1.8620
8.9127	1122.0000	2.4314	1.7319
8.9286	1120.0000	2.5337	1.5835
8.9445	1118.0000	2.6018	1.4281
8.9606	1116.0000	2.6386	1.2759
8.9767	1114.0000	2.6496	1.1336
8.9928	1112.0000	2.6412	1.0051
9.0090	1110.0000	2.6193	0.8917
9.0253	1108.0000	2.5884	0.7929
9.0416	1106.0000	2.5523	0.7075
9.0580	1104.0000	2.5135	0.6339
9.0744	1102.0000	2.4736	0.5706
9.0909	1100.0000	2.4340	0.5161
9.1075	1098.0000	2.3952	0.4689
9.1241	1096.0000	2.3577	0.4280
9.1408	1094.0000	2.3218	0.3924
9.1575	1092.0000	2.2876	0.3613
9.1743	1090.0000	2.2551	0.3340
9.1912	1088.0000	2.2243	0.3099
9.2081	1086.0000	2.1952	0.2886
9.2251	1084.0000	2.1676	0.2697
9.2421	1082.0000	2.1415	0.2528
9.2593	1080.0000	2.1168	0.2378
9.2764	1078.0000	2.0934	0.2242
9.2937	1076.0000	2.0713	0.2121
9.3110	1074.0000	2.0502	0.2011
9.3284	1072.0000	2.0303	0.1912
9.3458	1070.0000	2.0114	0.1821
9.3633	1068.0000	1.9934	0.1739
9.3809	1066.0000	1.9762	0.1665
9.3985	1064.0000	1.9599	0.1596
9.4162	1062.0000	1.9443	0.1534
9.4340	1060.0000	1.9294	0.1477
9.4518	1058.0000	1.9152	0.1425
9.4697	1056.0000	1.9015	0.1377
9.4877	1054.0000	1.8885	0.1332
9.5057	1052.0000	1.8760	0.1292
9.5238	1050.0000	1.8640	0.1254
9.5420	1048.0000	1.8525	0.1220
9.5602	1046.0000	1.8415	0.1188
9.5785	1044.0000	1.8308	0.1158
9.5969	1042.0000	1.8206	0.1131
9.6154	1040.0000	1.8107	0.1106
9.6339	1038.0000	1.8012	0.1083
9.6525	1036.0000	1.7921	0.1061
9.6712	1034.0000	1.7832	0.1042
9.6899	1032.0000	1.7747	0.1023
9.7087	1030.0000	1.7664	0.1007
9.7276	1028.0000	1.7585	0.0991
9.7466	1026.0000	1.7508	0.0977
9.7656	1024.0000	1.7433	0.0964
9.7847	1022.0000	1.7361	0.0952
9.8039	1020.0000	1.7291	0.0941
9.8232	1018.0000	1.7223	0.0931
9.8425	1016.0000	1.7157	0.0922
9.8619	1014.0000	1.7093	0.0914
9.8814	1012.0000	1.7031	0.0907
9.9010	1010.0000	1.6971	0.0900
9.9206	1008.0000	1.6913	0.0894
9.9404	1006.0000	1.6857	0.0889
9.9602	1004.0000	1.6802	0.0885
9.9800	1002.0000	1.6749	0.0881
10.0000	1000.0000	1.6697	0.0878
10.0200	998.0000	1.6647	0.0875
10.0402	996.0000	1.6598	0.0873
10.0604	994.0000	1.6551	0.0871
10.0806	992.0000	1.6505	0.0869
10.1010	990.0000	1.6460	0.0868
10.1215	988.0000	1.6417	0.0868
10.1420	986.0000	1.6375	0.0868
10.1626	984.0000	1.6334	0.0868
10.1833	982.0000	1.6294	0.0868
10.2041	980.0000	1.6256	0.0869
10.2249	978.0000	1.6218	0.0870
10.2459	976.0000	1.6182	0.0871
10.2669	974.0000	1.6147	0.0872
10.2881	972.0000	1.6113	0.0873
10.3093	970.0000	1.6080	0.0875
10.3306	968.0000	1.6048	0.0876
10.3520	966.0000	1.6017	0.0878
10.3734	964.0000	1.5987	0.0880
10.3950	962.0000	1.5958	0.0881
10.4167	960.0000	1.5929	0.0883
10.4384	958.0000	1.5902	0.0884
10.4603	956.0000	1.5875	0.0886
10.4822	954.0000	1.5850	0.0887
10.5042	952.0000	1.5825	0.0888
10.5263	950.0000	1.5800	0.0889
10.5485	948.0000	1.5777	0.0889
10.5708	946.0000	1.5753	0.0890
10.5932	944.0000	1.5731	0.0890
10.6157	942.0000	1.5709	0.0890
10.6383	940.0000	1.5688	0.0890
10.6610	938.0000	1.5667	0.0889
10.6838	936.0000	1.5646	0.0888
10.7066	934.0000	1.5626	0.0887
10.7296	932.0000	1.5606	0.0885
10.7527	930.0000	1.5587	0.0883
10.7759	928.0000	1.5568	0.0881
10.7991	926.0000	1.5549	0.0879
10.8225	924.0000	1.5530	0.0876
10.8460	922.0000	1.5511	0.0873
10.8696	920.0000	1.5493	0.0870
10.8932	918.0000	1.5474	0.0866
10.9170	916.0000	1.5456	0.0862
10.9409	914.0000	1.5437	0.0858
10.9649	912.0000	1.5419	0.0854
10.9890	910.0000	1.5401	0.0849
11.0132	908.0000	1.5382	0.0845
11.0375	906.0000	1.5363	0.0840
11.0619	904.0000	1.5345	0.0835
11.0865	902.0000	1.5326	0.0830
11.1111	900.0000	1.5307	0.0825
11.1359	898.0000	1.5288	0.0819
11.1607	896.0000	1.5269	0.0814
11.1857	894.0000	1.5249	0.0809
11.2108	892.0000	1.5230	0.0803
11.2360	890.0000	1.5210	0.0798
11.2613	888.0000	1.5190	0.0793
11.2867	886.0000	1.5170	0.0788
11.3122	884.0000	1.5150	0.0782
11.3379	882.0000	1.5130	0.0777
11.3636	880.0000	1.5109	0.0772
11.3895	878.0000	1.5088	0.0767
11.4155	876.0000	1.5067	0.0762
11.4416	874.0000	1.5046	0.0757
11.4679	872.0000	1.5025	0.0753
11.4943	870.0000	1.5004	0.0748
11.5207	868.0000	1.4982	0.0744
11.5473	866.0000	1.4960	0.0740
11.5741	864.0000	1.4939	0.0736
11.6009	862.0000	1.4916	0.0732
11.6279	860.0000	1.4894	0.0728
11.6550	858.0000	1.4872	0.0724
11.6822	856.0000	1.4849	0.0721
11.7096	854.0000	1.4827	0.0718
11.7371	852.0000	1.4804	0.0715
11.7647	850.0000	1.4781	0.0712
11.7925	848.0000	1.4758	0.0709
11.8203	846.0000	1.4735	0.0707
11.8483	844.0000	1.4712	0.0705
11.8765	842.0000	1.4688	0.0702
11.9048	840.0000	1.4664	0.0701
11.9332	838.0000	1.4641	0.0699
11.9617	836.0000	1.4617	0.0697
11.9904	834.0000	1.4593	0.0696
12.0192	832.0000	1.4568	0.0695
12.0482	830.0000	1.4544	0.0694
12.0773	828.0000	1.4520	0.0693
12.1065	826.0000	1.4495	0.0693
12.1359	824.0000	1.4470	0.0692
12.1655	822.0000	1.4445	0.0692
12.1951	820.0000	1.4420	0.0692
12.2249	818.0000	1.4394	0.0692
12.2549	816.0000	1.4369	0.0693
12.2850	814.0000	1.4343	0.0694
12.3153	812.0000	1.4317	0.0694
12.3457	810.0000	1.4291	0.0695
12.3762	808.0000	1.4265	0.0697
12.4069	806.0000	1.4238	0.0698
12.4378	804.0000	1.4211	0.0700
12.4688	802.0000	1.4184	0.0702
12.5000	800.0000	1.4157	0.0704
12.5313	798.0000	1.4129	0.0706
12.5628	796.0000	1.4101	0.0709
12.5945	794.0000	1.4073	0.0711
12.6263	792.0000	1.4045	0.0714
12.6582	790.0000	1.4016	0.0718
12.6904	788.0000	1.3987	0.0721
12.7226	786.0000	1.3958	0.0725
12.7551	784.0000	1.3928	0.0729
12.7877	782.0000	1.3898	0.0733
12.8205	780.0000	1.3867	0.0737
12.8535	778.0000	1.3836	0.0742
12.8866	776.0000	1.3805	0.0747
12.9199	774.0000	1.3773	0.0752
12.9534	772.0000	1.3740	0.0758
12.9870	770.0000	1.3707	0.0763
13.0208	768.0000	1.3674	0.0769
13.0548	766.0000	1.3640	0.0776
13.0890	764.0000	1.3605	0.0783
13.1234	762.0000	1.3569	0.0790
13.1579	760.0000	1.3533	0.0797
13.1926	758.0000	1.3496	0.0805
13.2275	756.0000	1.3459	0.0814
13.2626	754.0000	1.3420	0.0822
13.2979	752.0000	1.3381	0.0831
13.3333	750.0000	1.3341	0.0841
13.3690	748.0000	1.3299	0.0851
13.4048	746.0000	1.3257	0.0862
13.4409	744.0000	1.3213	0.0873
13.4771	742.0000	1.3168	0.0885
13.5135	740.0000	1.3122	0.0898
13.5501	738.0000	1.3074	0.0911
13.5870	736.0000	1.3025	0.0926
13.6240	734.0000	1.2974	0.0941
13.6612	732.0000	1.2921	0.0957
13.6986	730.0000	1.2865	0.0974
13.7363	728.0000	1.2808	0.0993
13.7741	726.0000	1.2748	0.1012
13.8122	724.0000	1.2686	0.1034
13.8504	722.0000	1.2620	0.1057
13.8889	720.0000	1.2552	0.1082
13.9276	718.0000	1.2479	0.1109
13.9665	716.0000	1.2403	0.1139
14.0056	714.0000	1.2322	0.1172
14.0449	712.0000	1.2236	0.1209
14.0845	710.0000	1.2144	0.1249
14.1243	708.0000	1.2045	0.1295
14.1643	706.0000	1.1939	0.1347
14.2045	704.0000	1.1825	0.1407
14.2450	702.0000	1.1701	0.1475
14.2857	700.0000	1.1566	0.1556
14.3266	698.0000	1.1418	0.1651
14.3678	696.0000	1.1255	0.1766
14.4092	694.0000	1.1077	0.1906
14.4509	692.0000	1.0880	0.2080
14.4928	690.0000	1.0666	0.2300
14.5349	688.0000	1.0435	0.2584
14.5773	686.0000	1.0196	0.2955
14.6199	684.0000	0.9971	0.3446
14.6628	682.0000	0.9804	0.4095
14.7059	680.0000	0.9781	0.4928
14.7493	678.0000	1.0032	0.5926
14.7929	676.0000	1.0711	0.6974
14.8368	674.0000	1.1916	0.7817
14.8810	672.0000	1.3539	0.8083
14.9254	670.0000	1.5130	0.7532
14.9701	668.0000	1.6165	0.6393
15.0150	666.0000	1.6529	0.5173
15.0602	664.0000	1.6454	0.4178
15.1057	662.0000	1.6179	0.3456
15.1515	660.0000	1.5844	0.2955
15.1976	658.0000	1.5506	0.2609
15.2439	656.0000	1.5190	0.2371
15.2905	654.0000	1.4900	0.2208
15.3374	652.0000	1.4636	0.2097
15.3846	650.0000	1.4394	0.2024
15.4321	648.0000	1.4171	0.1980
15.4799	646.0000	1.3963	0.1958
15.5280	644.0000	1.3767	0.1955
15.5763	642.0000	1.3581	0.1967
15.6250	640.0000	1.3402	0.1993
15.6740	638.0000	1.3227	0.2033
15.7233	636.0000	1.3055	0.2085
15.7729	634.0000	1.2886	0.2152
15.8228	632.0000	1.2716	0.2233
15.8730	630.0000	1.2545	0.2332
15.9236	628.0000	1.2372	0.2450
15.9744	626.0000	1.2198	0.2591
16.0256	624.0000	1.2021	0.2762
16.0772	622.0000	1.1845	0.2967
16.1290	620.0000	1.1673	0.3215
16.1812	618.0000	1.1513	0.3517
16.2338	616.0000	1.1376	0.3883
16.2866	614.0000	1.1285	0.4323
16.3399	612.0000	1.1271	0.4844
16.3934	610.0000	1.1377	0.5438
16.4474	608.0000	1.1654	0.6076
16.5017	606.0000	1.2151	0.6694
16.5563	604.0000	1.2883	0.7188
16.6113	602.0000	1.3806	0.7436
16.6667	600.0000	1.4789	0.7343
16.7224	598.0000	1.5655	0.6912
16.7785	596.0000	1.6263	0.6259
16.8350	594.0000	1.6584	0.5542
16.8919	592.0000	1.6671	0.4879
16.9492	590.0000	1.6605	0.4323
17.0068	588.0000	1.6453	0.3882
17.0648	586.0000	1.6261	0.3541
17.1233	584.0000	1.6057	0.3282
17.1821	582.0000	1.5854	0.3088
17.2414	580.0000	1.5661	0.2942
17.3010	578.0000	1.5479	0.2835
17.3611	576.0000	1.5310	0.2758
17.4216	574.0000	1.5154	0.2703
17.4825	572.0000	1.5010	0.2667
17.5439	570.0000	1.4877	0.2645
17.6056	568.0000	1.4754	0.2635
17.6678	566.0000	1.4640	0.2635
17.7305	564.0000	1.4535	0.2643
17.7936	562.0000	1.4437	0.2657
17.8571	560.0000	1.4347	0.2677
17.9211	558.0000	1.4263	0.2703
17.9856	556.0000	1.4184	0.2732
18.0505	554.0000	1.4111	0.2765
18.1159	552.0000	1.4043	0.2802
18.1818	550.0000	1.3980	0.2842
18.2482	548.0000	1.3921	0.2884
18.3150	546.0000	1.3867	0.2929
18.3824	544.0000	1.3816	0.2975
18.4502	542.0000	1.3769	0.3024
18.5185	540.0000	1.3726	0.3075
18.5874	538.0000	1.3687	0.3127
18.6567	536.0000	1.3651	0.3181
18.7266	534.0000	1.3618	0.3236
18.7970	532.0000	1.3588	0.3293
18.8679	530.0000	1.3562	0.3350
18.9394	528.0000	1.3539	0.3409
19.0114	526.0000	1.3519	0.3469
19.0840	524.0000	1.3502	0.3529
19.1571	522.0000	1.3489	0.3590
19.2308	520.0000	1.3478	0.3652
19.3050	518.0000	1.3471	0.3714
19.3798	516.0000	1.3466	0.3776
19.4553	514.0000	1.3465	0.3839
19.5313	512.0000	1.3466	0.3901
19.6078	510.0000	1.3471	0.3964
19.6850	508.0000	1.3478	0.4026
19.7628	506.0000	1.3489	0.4088
19.8413	504.0000	1.3502	0.4150
19.9203	502.0000	1.3518	0.4211
20.0000	500.0000	1.3537	0.4271
20.0803	498.0000	1.3559	0.4330
20.1613	496.0000	1.3584	0.4388
20.2429	494.0000	1.3611	0.4445
20.3252	492.0000	1.3641	0.4501
20.4082	490.0000	1.3673	0.4555
20.4918	488.0000	1.3708	0.4608
20.5761	486.0000	1.3745	0.4658
20.6612	484.0000	1.3785	0.4707
20.7469	482.0000	1.3826	0.4754
20.8333	480.0000	1.3870	0.4799
20.9205	478.0000	1.3915	0.4841
21.0084	476.0000	1.3962	0.4881
21.0970	474.0000	1.4011	0.4918
21.1864	472.0000	1.4061	0.4953
21.2766	470.0000	1.4112	0.4985
21.3675	468.0000	1.4164	0.5014
21.4592	466.0000	1.4217	0.5041
21.5517	464.0000	1.4271	0.5064
21.6450	462.0000	1.4326	0.5085
21.7391	460.0000	1.4380	0.5103
21.8341	458.0000	1.4435	0.5117
21.9298	456.0000	1.4490	0.5129
22.0264	454.0000	1.4544	0.5137
22.1239	452.0000	1.4598	0.5143
22.2222	450.0000	1.4651	0.5146
22.3214	448.0000	1.4703	0.5145
22.4215	446.0000	1.4754	0.5143
22.5225	444.0000	1.4804	0.5137
22.6244	442.0000	1.4852	0.5128
22.7273	440.0000	1.4898	0.5117
22.8311	438.0000	1.4943	0.5104
22.9358	436.0000	1.4985	0.5088
23.0415	434.0000	1.5026	0.5070
23.1481	432.0000	1.5064	0.5050
23.2558	430.0000	1.5100	0.5028
23.3645	428.0000	1.5133	0.5004
23.4742	426.0000	1.5163	0.4979
23.5849	424.0000	1.5191	0.4953
23.6967	422.0000	1.5215	0.4925
23.8095	420.0000	1.5237	0.4896
23.9234	418.0000	1.5255	0.4866
24.0385	416.0000	1.5271	0.4835
24.1546	414.0000	1.5283	0.4804
24.2718	412.0000	1.5292	0.4773
24.3902	410.0000	1.5297	0.4742
24.5098	408.0000	1.5300	0.4710
24.6305	406.0000	1.5298	0.4679
24.7525	404.0000	1.5294	0.4648
24.8756	402.0000	1.5286	0.4618
25.0000	400.0000	1.5275	0.4589
25.1256	398.0000	1.5260	0.4561
25.2525	396.0000	1.5242	0.4534
25.3807	394.0000	1.5220	0.4508
25.5102	392.0000	1.5195	0.4484
25.6410	390.0000	1.5167	0.4462
25.7732	388.0000	1.5136	0.4442
25.9067	386.0000	1.5101	0.4424
26.0417	384.0000	1.5063	0.4409
26.1780	382.0000	1.5021	0.4396
26.3158	380.0000	1.4977	0.4386
26.4550	378.0000	1.4929	0.4380
26.5957	376.0000	1.4879	0.4376
26.7380	374.0000	1.4825	0.4377
26.8817	372.0000	1.4768	0.4381
27.0270	370.0000	1.4709	0.4389
27.1739	368.0000	1.4646	0.4402
27.3224	366.0000	1.4582	0.4420
27.4725	364.0000	1.4514	0.4444
27.6243	362.0000	1.4445	0.4472
27.7778	360.0000	1.4374	0.4507
27.9330	358.0000	1.4300	0.4549
28.0899	356.0000	1.4226	0.4597
28.2486	354.0000	1.4150	0.4653
28.4091	352.0000	1.4074	0.4717
28.5714	350.0000	1.3998	0.4789
28.7356	348.0000	1.3923	0.4870
28.9017	346.0000	1.3849	0.4960
29.0698	344.0000	1.3777	0.5060
29.2398	342.0000	1.3710	0.5171
29.4118	340.0000	1.3647	0.5292
29.5858	338.0000	1.3590	0.5424
29.7619	336.0000	1.3541	0.5566
29.9401	334.0000	1.3502	0.5719
30.1205	332.0000	1.3475	0.5882
30.3030	330.0000	1.3462	0.6054
30.4878	328.0000	1.3464	0.6233
30.6748	326.0000	1.3484	0.6417
30.8642	324.0000	1.3524	0.6604
31.0559	322.0000	1.3585	0.6791
31.2500	320.0000	1.3669	0.6974
31.4465	318.0000	1.3774	0.7148
31.6456	316.0000	1.3901	0.7309
31.8471	314.0000	1.4048	0.7453
32.0513	312.0000	1.4211	0.7575
32.2581	310.0000	1.4387	0.7671
32.4675	308.0000	1.4569	0.7738
32.6797	306.0000	1.4752	0.7774
32.8947	304.0000	1.4929	0.7780
33.1126	302.0000	1.5093	0.7757
33.3333	300.0000	1.5237	0.7708
33.5570	298.0000	1.5358	0.7637
33.7838	296.0000	1.5450	0.7551
34.0136	294.0000	1.5511	0.7455
34.2466	292.0000	1.5541	0.7356
34.4828	290.0000	1.5539	0.7260
34.7222	288.0000	1.5506	0.7172
34.9650	286.0000	1.5446	0.7098
35.2113	284.0000	1.5360	0.7042
35.4610	282.0000	1.5253	0.7006
35.7143	280.0000	1.5126	0.6995
35.9712	278.0000	1.4984	0.7011
36.2319	276.0000	1.4830	0.7055
36.4964	274.0000	1.4668	0.7129
36.7647	272.0000	1.4500	0.7234
37.0370	270.0000	1.4331	0.7372
37.3134	268.0000	1.4164	0.7544
37.5940	266.0000	1.4003	0.7750
37.8788	264.0000	1.3853	0.7991
38.1679	262.0000	1.3716	0.8266
38.4615	260.0000	1.3599	0.8576
38.7597	258.0000	1.3506	0.8920
39.0625	256.0000	1.3441	0.9296
39.3701	254.0000	1.3410	0.9702
39.6825	252.0000	1.3418	1.0136
40.0000	250.0000	1.3470	1.0592
40.3226	248.0000	1.3569	1.1069
40.6504	246.0000	1.3721	1.1559
40.9836	244.0000	1.3929	1.2058
41.3223	242.0000	1.4196	1.2560
41.6667	240.0000	1.4527	1.3056
42.0168	238.0000	1.4922	1.3539
42.3729	236.0000	1.5384	1.4000
42.7350	234.0000	1.5913	1.4427
43.1034	232.0000	1.6507	1.4811
43.4783	230.0000	1.7164	1.5137
43.8596	228.0000	1.7876	1.5395
44.2478	226.0000	1.8635	1.5570
44.6429	224.0000	1.9427	1.5652
45.0450	222.0000	2.0236	1.5631
45.4545	220.0000	2.1041	1.5503
45.8716	218.0000	2.1822	1.5267
46.2963	216.0000	2.2555	1.4928
46.7290	214.0000	2.3221	1.4499
47.1698	212.0000	2.3803	1.3996
47.6190	210.0000	2.4288	1.3438
48.0769	208.0000	2.4670	1.2847
48.5437	206.0000	2.4948	1.2246
49.0196	204.0000	2.5125	1.1654
49.5050	202.0000	2.5209	1.1091
50.0000	200.0000	2.5209	1.0572
50.5051	198.0000	2.5136	1.0110
51.0204	196.0000	2.5003	0.9718
51.5464	194.0000	2.4821	0.9408
52.0833	192.0000	2.4608	0.9192
52.6316	190.0000	2.4383	0.9084
53.1915	188.0000	2.4174	0.9097
53.7634	186.0000	2.4022	0.9240
54.3478	184.0000	2.3984	0.9512
54.9451	182.0000	2.4134	0.9880
55.5556	180.0000	2.4545	1.0259
56.1798	178.0000	2.5243	1.0502
56.8182	176.0000	2.6144	1.0440
57.4713	174.0000	2.7055	0.9980
58.1395	172.0000	2.7755	0.9181
58.8235	170.0000	2.8131	0.8220
59.5238	168.0000	2.8199	0.7269
60.2410	166.0000	2.8043	0.6426
60.9756	164.0000	2.7750	0.5725
61.7284	162.0000	2.7386	0.5158
62.5000	160.0000	2.6989	0.4706
63.2911	158.0000	2.6581	0.4349
64.1026	156.0000	2.6172	0.4069
64.9351	154.0000	2.5766	0.3853
65.7895	152.0000	2.5365	0.3692
66.6667	150.0000	2.4966	0.3580
67.5676	148.0000	2.4567	0.3515
68.4932	146.0000	2.4164	0.3497
69.4444	144.0000	2.3756	0.3531
70.4225	142.0000	2.3338	0.3622
71.4286	140.0000	2.2909	0.3784
72.4638	138.0000	2.2470	0.4034
73.5294	136.0000	2.2028	0.4399
74.6269	134.0000	2.1604	0.4915
75.7576	132.0000	2.1238	0.5626
76.9231	130.0000	2.1018	0.6575
78.1250	128.0000	2.1085	0.7774
79.3651	126.0000	2.1639	0.9136
80.6452	124.0000	2.2851	1.0407
81.9672	122.0000	2.4709	1.1171
83.3333	120.0000	2.6855	1.1042
84.7458	118.0000	2.8693	1.0001
86.2069	116.0000	2.9815	0.8460
87.7193	114.0000	3.0235	0.6902
89.2857	112.0000	3.0190	0.5584
90.9091	110.0000	2.9908	0.4555
92.5926	108.0000	2.9530	0.3773
94.3396	106.0000	2.9131	0.3180
96.1538	104.0000	2.8745	0.2727
98.0392	102.0000	2.8385	0.2374
100.0000	100.0000	2.8055	0.2095
102.0408	98.0000	2.7755	0.1870
104.1667	96.0000	2.7483	0.1686
106.3830	94.0000	2.7236	0.1533
108.6957	92.0000	2.7012	0.1404
111.1111	90.0000	2.6807	0.1294
113.6364	88.0000	2.6619	0.1198
116.2791	86.0000	2.6446	0.1115
119.0476	84.0000	2.6287	0.1041
121.9512	82.0000	2.6141	0.0976
125.0000	80.0000	2.6005	0.0917
128.2051	78.0000	2.5878	0.0863
131.5789	76.0000	2.5761	0.0815
135.1351	74.0000	2.5651	0.0770
138.8889	72.0000	2.5549	0.0729
142.8571	70.0000	2.5453	0.0691
147.0588	68.0000	2.5363	0.0655
151.5152	66.0000	2.5279	0.0622
156.2500	64.0000	2.5199	0.0591
161.2903	62.0000	2.5125	0.0561
166.6667	60.0000	2.5055	0.0533
172.4138	58.0000	2.4989	0.0507
178.5714	56.0000	2.4927	0.0481
185.1852	54.0000	2.4868	0.0457
192.3077	52.0000	2.4813	0.0434
200.0000	50.0000	2.4761	0.0412
208.3333	48.0000	2.4712	0.0391
217.3913	46.0000	2.4666	0.0370
227.2727	44.0000	2.4623	0.0350
238.0952	42.0000	2.4582	0.0331
250.0000	40.0000	2.4544	0.0312
263.1579	38.0000	2.4509	0.0294
277.7778	36.0000	2.4475	0.0276
294.1176	34.0000	2.4444	0.0258
312.5000	32.0000	2.4415	0.0241
333.3333	30.0000	2.4388	0.0225