Calcite "pellet" optical constants calculated from Long et al. Infrared
Phys., 34, 191-301, 1993.
    wave.    Freq.      real       imag.
  (microns)  (cm-1)    index       index
    2.5000  4000.00  1.4525E+00  2.7447E-04
    2.5025  3996.00  1.4524E+00  2.7546E-04
    2.5050  3992.00  1.4524E+00  2.7645E-04
    2.5075  3988.00  1.4524E+00  2.7744E-04
    2.5100  3984.00  1.4523E+00  2.7844E-04
    2.5126  3980.00  1.4523E+00  2.7945E-04
    2.5151  3976.00  1.4522E+00  2.8046E-04
    2.5176  3972.00  1.4522E+00  2.8148E-04
    2.5202  3968.00  1.4521E+00  2.8250E-04
    2.5227  3964.00  1.4521E+00  2.8352E-04
    2.5253  3960.00  1.4520E+00  2.8456E-04
    2.5278  3956.00  1.4520E+00  2.8559E-04
    2.5304  3952.00  1.4519E+00  2.8664E-04
    2.5329  3948.00  1.4519E+00  2.8768E-04
    2.5355  3944.00  1.4518E+00  2.8873E-04
    2.5381  3940.00  1.4518E+00  2.8979E-04
    2.5407  3936.00  1.4517E+00  2.9086E-04
    2.5432  3932.00  1.4517E+00  2.9192E-04
    2.5458  3928.00  1.4516E+00  2.9300E-04
    2.5484  3924.00  1.4516E+00  2.9408E-04
    2.5510  3920.00  1.4515E+00  2.9516E-04
    2.5536  3916.00  1.4515E+00  2.9625E-04
    2.5562  3912.00  1.4514E+00  2.9735E-04
    2.5589  3908.00  1.4514E+00  2.9845E-04
    2.5615  3904.00  1.4513E+00  2.9956E-04
    2.5641  3900.00  1.4513E+00  3.0067E-04
    2.5667  3896.00  1.4512E+00  3.0179E-04
    2.5694  3892.00  1.4512E+00  3.0292E-04
    2.5720  3888.00  1.4511E+00  3.0405E-04
    2.5747  3884.00  1.4511E+00  3.0519E-04
    2.5773  3880.00  1.4510E+00  3.0633E-04
    2.5800  3876.00  1.4510E+00  3.0748E-04
    2.5826  3872.00  1.4509E+00  3.0863E-04
    2.5853  3868.00  1.4509E+00  3.0979E-04
    2.5880  3864.00  1.4508E+00  3.1096E-04
    2.5907  3860.00  1.4508E+00  3.1213E-04
    2.5934  3856.00  1.4507E+00  3.1331E-04
    2.5961  3852.00  1.4507E+00  3.1450E-04
    2.5988  3848.00  1.4506E+00  3.1569E-04
    2.6015  3844.00  1.4506E+00  3.1689E-04
    2.6042  3840.00  1.4505E+00  3.1809E-04
    2.6069  3836.00  1.4505E+00  3.1930E-04
    2.6096  3832.00  1.4504E+00  3.2052E-04
    2.6123  3828.00  1.4504E+00  3.2174E-04
    2.6151  3824.00  1.4503E+00  3.2297E-04
    2.6178  3820.00  1.4502E+00  3.2421E-04
    2.6205  3816.00  1.4502E+00  3.2545E-04
    2.6233  3812.00  1.4501E+00  3.2670E-04
    2.6261  3808.00  1.4501E+00  3.2795E-04
    2.6288  3804.00  1.4500E+00  3.2922E-04
    2.6316  3800.00  1.4500E+00  3.3049E-04
    2.6344  3796.00  1.4499E+00  3.3176E-04
    2.6371  3792.00  1.4499E+00  3.3305E-04
    2.6399  3788.00  1.4498E+00  3.3434E-04
    2.6427  3784.00  1.4498E+00  3.3563E-04
    2.6455  3780.00  1.4497E+00  3.3694E-04
    2.6483  3776.00  1.4496E+00  3.3825E-04
    2.6511  3772.00  1.4496E+00  3.3957E-04
    2.6539  3768.00  1.4495E+00  3.4089E-04
    2.6567  3764.00  1.4495E+00  3.4223E-04
    2.6596  3760.00  1.4494E+00  3.4357E-04
    2.6624  3756.00  1.4494E+00  3.4491E-04
    2.6652  3752.00  1.4493E+00  3.4627E-04
    2.6681  3748.00  1.4492E+00  3.4763E-04
    2.6709  3744.00  1.4492E+00  3.4900E-04
    2.6738  3740.00  1.4491E+00  3.5038E-04
    2.6767  3736.00  1.4491E+00  3.5176E-04
    2.6795  3732.00  1.4490E+00  3.5316E-04
    2.6824  3728.00  1.4490E+00  3.5456E-04
    2.6853  3724.00  1.4489E+00  3.5596E-04
    2.6882  3720.00  1.4488E+00  3.5738E-04
    2.6911  3716.00  1.4488E+00  3.5880E-04
    2.6940  3712.00  1.4487E+00  3.6023E-04
    2.6969  3708.00  1.4487E+00  3.6167E-04
    2.6998  3704.00  1.4486E+00  3.6312E-04
    2.7027  3700.00  1.4485E+00  3.6458E-04
    2.7056  3696.00  1.4485E+00  3.6604E-04
    2.7086  3692.00  1.4484E+00  3.6751E-04
    2.7115  3688.00  1.4484E+00  3.6899E-04
    2.7144  3684.00  1.4483E+00  3.7048E-04
    2.7174  3680.00  1.4482E+00  3.7198E-04
    2.7203  3676.00  1.4482E+00  3.7348E-04
    2.7233  3672.00  1.4481E+00  3.7500E-04
    2.7263  3668.00  1.4480E+00  3.7652E-04
    2.7293  3664.00  1.4480E+00  3.7805E-04
    2.7322  3660.00  1.4479E+00  3.7959E-04
    2.7352  3656.00  1.4479E+00  3.8114E-04
    2.7382  3652.00  1.4478E+00  3.8270E-04
    2.7412  3648.00  1.4477E+00  3.8426E-04
    2.7442  3644.00  1.4477E+00  3.8584E-04
    2.7473  3640.00  1.4476E+00  3.8742E-04
    2.7503  3636.00  1.4475E+00  3.8902E-04
    2.7533  3632.00  1.4475E+00  3.9062E-04
    2.7563  3628.00  1.4474E+00  3.9223E-04
    2.7594  3624.00  1.4473E+00  3.9385E-04
    2.7624  3620.00  1.4473E+00  3.9548E-04
    2.7655  3616.00  1.4472E+00  3.9712E-04
    2.7685  3612.00  1.4471E+00  3.9877E-04
    2.7716  3608.00  1.4471E+00  4.0043E-04
    2.7747  3604.00  1.4470E+00  4.0210E-04
    2.7778  3600.00  1.4469E+00  4.0378E-04
    2.7809  3596.00  1.4469E+00  4.0547E-04
    2.7840  3592.00  1.4468E+00  4.0717E-04
    2.7871  3588.00  1.4467E+00  4.0887E-04
    2.7902  3584.00  1.4467E+00  4.1059E-04
    2.7933  3580.00  1.4466E+00  4.1232E-04
    2.7964  3576.00  1.4465E+00  4.1406E-04
    2.7996  3572.00  1.4465E+00  4.1581E-04
    2.8027  3568.00  1.4464E+00  4.1757E-04
    2.8058  3564.00  1.4463E+00  4.1934E-04
    2.8090  3560.00  1.4463E+00  4.2112E-04
    2.8121  3556.00  1.4462E+00  4.2291E-04
    2.8153  3552.00  1.4461E+00  4.2471E-04
    2.8185  3548.00  1.4460E+00  4.2652E-04
    2.8217  3544.00  1.4460E+00  4.2834E-04
    2.8249  3540.00  1.4459E+00  4.3018E-04
    2.8281  3536.00  1.4458E+00  4.3202E-04
    2.8313  3532.00  1.4458E+00  4.3388E-04
    2.8345  3528.00  1.4457E+00  4.3575E-04
    2.8377  3524.00  1.4456E+00  4.3762E-04
    2.8409  3520.00  1.4455E+00  4.3951E-04
    2.8441  3516.00  1.4455E+00  4.4141E-04
    2.8474  3512.00  1.4454E+00  4.4333E-04
    2.8506  3508.00  1.4453E+00  4.4525E-04
    2.8539  3504.00  1.4453E+00  4.4719E-04
    2.8571  3500.00  1.4452E+00  4.4914E-04
    2.8604  3496.00  1.4451E+00  4.5110E-04
    2.8637  3492.00  1.4450E+00  4.5307E-04
    2.8670  3488.00  1.4450E+00  4.5505E-04
    2.8703  3484.00  1.4449E+00  4.5705E-04
    2.8736  3480.00  1.4448E+00  4.5906E-04
    2.8769  3476.00  1.4447E+00  4.6108E-04
    2.8802  3472.00  1.4447E+00  4.6311E-04
    2.8835  3468.00  1.4446E+00  4.6516E-04
    2.8868  3464.00  1.4445E+00  4.6721E-04
    2.8902  3460.00  1.4444E+00  4.6929E-04
    2.8935  3456.00  1.4443E+00  4.7137E-04
    2.8969  3452.00  1.4443E+00  4.7347E-04
    2.9002  3448.00  1.4442E+00  4.7558E-04
    2.9036  3444.00  1.4441E+00  4.7770E-04
    2.9070  3440.00  1.4440E+00  4.7984E-04
    2.9104  3436.00  1.4439E+00  4.8199E-04
    2.9138  3432.00  1.4439E+00  4.8415E-04
    2.9172  3428.00  1.4438E+00  4.8633E-04
    2.9206  3424.00  1.4437E+00  4.8852E-04
    2.9240  3420.00  1.4436E+00  4.9073E-04
    2.9274  3416.00  1.4435E+00  4.9295E-04
    2.9308  3412.00  1.4435E+00  4.9518E-04
    2.9343  3408.00  1.4434E+00  4.9743E-04
    2.9377  3404.00  1.4433E+00  4.9969E-04
    2.9412  3400.00  1.4432E+00  5.0197E-04
    2.9446  3396.00  1.4431E+00  5.0426E-04
    2.9481  3392.00  1.4431E+00  5.0656E-04
    2.9516  3388.00  1.4430E+00  5.0888E-04
    2.9551  3384.00  1.4429E+00  5.1122E-04
    2.9586  3380.00  1.4428E+00  5.1357E-04
    2.9621  3376.00  1.4427E+00  5.1594E-04
    2.9656  3372.00  1.4426E+00  5.1832E-04
    2.9691  3368.00  1.4425E+00  5.2071E-04
    2.9727  3364.00  1.4425E+00  5.2313E-04
    2.9762  3360.00  1.4424E+00  5.2555E-04
    2.9797  3356.00  1.4423E+00  5.2800E-04
    2.9833  3352.00  1.4422E+00  5.3046E-04
    2.9869  3348.00  1.4421E+00  5.3293E-04
    2.9904  3344.00  1.4420E+00  5.3543E-04
    2.9940  3340.00  1.4419E+00  5.3794E-04
    2.9976  3336.00  1.4418E+00  5.4046E-04
    3.0012  3332.00  1.4418E+00  5.4300E-04
    3.0048  3328.00  1.4417E+00  5.4556E-04
    3.0084  3324.00  1.4416E+00  5.4814E-04
    3.0120  3320.00  1.4415E+00  5.5073E-04
    3.0157  3316.00  1.4414E+00  5.5334E-04
    3.0193  3312.00  1.4413E+00  5.5597E-04
    3.0230  3308.00  1.4412E+00  5.5861E-04
    3.0266  3304.00  1.4411E+00  5.6128E-04
    3.0303  3300.00  1.4410E+00  5.6396E-04
    3.0340  3296.00  1.4409E+00  5.6666E-04
    3.0377  3292.00  1.4408E+00  5.6938E-04
    3.0414  3288.00  1.4407E+00  5.7211E-04
    3.0451  3284.00  1.4406E+00  5.7487E-04
    3.0488  3280.00  1.4406E+00  5.7764E-04
    3.0525  3276.00  1.4405E+00  5.8043E-04
    3.0562  3272.00  1.4404E+00  5.8324E-04
    3.0600  3268.00  1.4403E+00  5.8607E-04
    3.0637  3264.00  1.4402E+00  5.8892E-04
    3.0675  3260.00  1.4401E+00  5.9179E-04
    3.0713  3256.00  1.4400E+00  5.9468E-04
    3.0750  3252.00  1.4399E+00  5.9759E-04
    3.0788  3248.00  1.4398E+00  6.0052E-04
    3.0826  3244.00  1.4397E+00  6.0347E-04
    3.0864  3240.00  1.4396E+00  6.0644E-04
    3.0902  3236.00  1.4395E+00  6.0943E-04
    3.0941  3232.00  1.4394E+00  6.1244E-04
    3.0979  3228.00  1.4393E+00  6.1548E-04
    3.1017  3224.00  1.4392E+00  6.1853E-04
    3.1056  3220.00  1.4391E+00  6.2160E-04
    3.1095  3216.00  1.4390E+00  6.2470E-04
    3.1133  3212.00  1.4389E+00  6.2782E-04
    3.1172  3208.00  1.4388E+00  6.3096E-04
    3.1211  3204.00  1.4387E+00  6.3412E-04
    3.1250  3200.00  1.4386E+00  6.3731E-04
    3.1289  3196.00  1.4385E+00  6.4052E-04
    3.1328  3192.00  1.4383E+00  6.4375E-04
    3.1368  3188.00  1.4382E+00  6.4700E-04
    3.1407  3184.00  1.4381E+00  6.5028E-04
    3.1447  3180.00  1.4380E+00  6.5358E-04
    3.1486  3176.00  1.4379E+00  6.5691E-04
    3.1526  3172.00  1.4378E+00  6.6025E-04
    3.1566  3168.00  1.4377E+00  6.6363E-04
    3.1606  3164.00  1.4376E+00  6.6703E-04
    3.1646  3160.00  1.4375E+00  6.7045E-04
    3.1686  3156.00  1.4374E+00  6.7389E-04
    3.1726  3152.00  1.4373E+00  6.7737E-04
    3.1766  3148.00  1.4372E+00  6.8086E-04
    3.1807  3144.00  1.4370E+00  6.8439E-04
    3.1847  3140.00  1.4369E+00  6.8793E-04
    3.1888  3136.00  1.4368E+00  6.9151E-04
    3.1928  3132.00  1.4367E+00  6.9511E-04
    3.1969  3128.00  1.4366E+00  6.9874E-04
    3.2010  3124.00  1.4365E+00  7.0239E-04
    3.2051  3120.00  1.4364E+00  7.0608E-04
    3.2092  3116.00  1.4362E+00  7.0978E-04
    3.2134  3112.00  1.4361E+00  7.1352E-04
    3.2175  3108.00  1.4360E+00  7.1729E-04
    3.2216  3104.00  1.4359E+00  7.2108E-04
    3.2258  3100.00  1.4358E+00  7.2490E-04
    3.2300  3096.00  1.4357E+00  7.2875E-04
    3.2342  3092.00  1.4355E+00  7.3263E-04
    3.2383  3088.00  1.4354E+00  7.3654E-04
    3.2425  3084.00  1.4353E+00  7.4048E-04
    3.2468  3080.00  1.4352E+00  7.4445E-04
    3.2510  3076.00  1.4350E+00  7.4845E-04
    3.2552  3072.00  1.4349E+00  7.5248E-04
    3.2595  3068.00  1.4348E+00  7.5654E-04
    3.2637  3064.00  1.4347E+00  7.6063E-04
    3.2680  3060.00  1.4346E+00  7.6475E-04
    3.2723  3056.00  1.4344E+00  7.6890E-04
    3.2765  3052.00  1.4343E+00  7.7309E-04
    3.2808  3048.00  1.4342E+00  7.7731E-04
    3.2852  3044.00  1.4340E+00  7.8156E-04
    3.2895  3040.00  1.4339E+00  7.8585E-04
    3.2938  3036.00  1.4338E+00  7.9016E-04
    3.2982  3032.00  1.4337E+00  7.9452E-04
    3.3025  3028.00  1.4335E+00  7.9890E-04
    3.3069  3024.00  1.4334E+00  8.0332E-04
    3.3113  3020.00  1.4333E+00  8.0778E-04
    3.3156  3016.00  1.4331E+00  8.1227E-04
    3.3201  3012.00  1.4330E+00  8.1680E-04
    3.3245  3008.00  1.4329E+00  8.2136E-04
    3.3289  3004.00  1.4327E+00  8.2596E-04
    3.3333  3000.00  1.4326E+00  8.3059E-04
    3.3378  2996.00  1.4325E+00  8.3526E-04
    3.3422  2992.00  1.4323E+00  8.3997E-04
    3.3467  2988.00  1.4322E+00  8.4472E-04
    3.3512  2984.00  1.4321E+00  8.4951E-04
    3.3557  2980.00  1.4319E+00  8.5433E-04
    3.3602  2976.00  1.4318E+00  8.5920E-04
    3.3647  2972.00  1.4316E+00  8.6410E-04
    3.3693  2968.00  1.4315E+00  8.6904E-04
    3.3738  2964.00  1.4314E+00  8.7403E-04
    3.3784  2960.00  1.4312E+00  8.7905E-04
    3.3829  2956.00  1.4311E+00  8.8412E-04
    3.3875  2952.00  1.4309E+00  8.8923E-04
    3.3921  2948.00  1.4308E+00  8.9438E-04
    3.3967  2944.00  1.4306E+00  8.9957E-04
    3.4014  2940.00  1.4305E+00  9.0480E-04
    3.4060  2936.00  1.4303E+00  9.1008E-04
    3.4106  2932.00  1.4302E+00  9.1541E-04
    3.4153  2928.00  1.4300E+00  9.2077E-04
    3.4200  2924.00  1.4299E+00  9.2618E-04
    3.4247  2920.00  1.4297E+00  9.3164E-04
    3.4294  2916.00  1.4296E+00  9.3715E-04
    3.4341  2912.00  1.4294E+00  9.4270E-04
    3.4388  2908.00  1.4293E+00  9.4829E-04
    3.4435  2904.00  1.4291E+00  9.5394E-04
    3.4483  2900.00  1.4290E+00  9.5963E-04
    3.4530  2896.00  1.4288E+00  9.6537E-04
    3.4578  2892.00  1.4287E+00  9.7117E-04
    3.4626  2888.00  1.4285E+00  9.7701E-04
    3.4674  2884.00  1.4283E+00  9.8290E-04
    3.4722  2880.00  1.4282E+00  9.8884E-04
    3.4771  2876.00  1.4280E+00  9.9483E-04
    3.4819  2872.00  1.4279E+00  1.0009E-03
    3.4868  2868.00  1.4277E+00  1.0070E-03
    3.4916  2864.00  1.4275E+00  1.0131E-03
    3.4965  2860.00  1.4274E+00  1.0193E-03
    3.5014  2856.00  1.4272E+00  1.0256E-03
    3.5063  2852.00  1.4270E+00  1.0319E-03
    3.5112  2848.00  1.4269E+00  1.0383E-03
    3.5162  2844.00  1.4267E+00  1.0447E-03
    3.5211  2840.00  1.4265E+00  1.0512E-03
    3.5261  2836.00  1.4264E+00  1.0577E-03
    3.5311  2832.00  1.4262E+00  1.0643E-03
    3.5361  2828.00  1.4260E+00  1.0710E-03
    3.5411  2824.00  1.4258E+00  1.0777E-03
    3.5461  2820.00  1.4257E+00  1.0845E-03
    3.5511  2816.00  1.4255E+00  1.0913E-03
    3.5562  2812.00  1.4253E+00  1.0982E-03
    3.5613  2808.00  1.4251E+00  1.1052E-03
    3.5663  2804.00  1.4249E+00  1.1122E-03
    3.5714  2800.00  1.4248E+00  1.1193E-03
    3.5765  2796.00  1.4246E+00  1.1265E-03
    3.5817  2792.00  1.4244E+00  1.1337E-03
    3.5868  2788.00  1.4242E+00  1.1410E-03
    3.5920  2784.00  1.4240E+00  1.1484E-03
    3.5971  2780.00  1.4238E+00  1.1558E-03
    3.6023  2776.00  1.4237E+00  1.1633E-03
    3.6075  2772.00  1.4235E+00  1.1708E-03
    3.6127  2768.00  1.4233E+00  1.1785E-03
    3.6179  2764.00  1.4231E+00  1.1862E-03
    3.6232  2760.00  1.4229E+00  1.1940E-03
    3.6284  2756.00  1.4227E+00  1.2018E-03
    3.6337  2752.00  1.4225E+00  1.2097E-03
    3.6390  2748.00  1.4223E+00  1.2178E-03
    3.6443  2744.00  1.4221E+00  1.2258E-03
    3.6496  2740.00  1.4219E+00  1.2340E-03
    3.6550  2736.00  1.4217E+00  1.2422E-03
    3.6603  2732.00  1.4215E+00  1.2505E-03
    3.6657  2728.00  1.4213E+00  1.2589E-03
    3.6711  2724.00  1.4211E+00  1.2674E-03
    3.6765  2720.00  1.4209E+00  1.2760E-03
    3.6819  2716.00  1.4207E+00  1.2846E-03
    3.6873  2712.00  1.4205E+00  1.2933E-03
    3.6928  2708.00  1.4203E+00  1.3022E-03
    3.6982  2704.00  1.4201E+00  1.3111E-03
    3.7037  2700.00  1.4199E+00  1.3200E-03
    3.7092  2696.00  1.4196E+00  1.3291E-03
    3.7147  2692.00  1.4194E+00  1.3383E-03
    3.7202  2688.00  1.4192E+00  1.3475E-03
    3.7258  2684.00  1.4190E+00  1.3569E-03
    3.7313  2680.00  1.4188E+00  1.3663E-03
    3.7369  2676.00  1.4186E+00  1.3759E-03
    3.7425  2672.00  1.4183E+00  1.3855E-03
    3.7481  2668.00  1.4181E+00  1.3952E-03
    3.7538  2664.00  1.4179E+00  1.4051E-03
    3.7594  2660.00  1.4177E+00  1.4150E-03
    3.7651  2656.00  1.4174E+00  1.4250E-03
    3.7707  2652.00  1.4172E+00  1.4352E-03
    3.7764  2648.00  1.4170E+00  1.4454E-03
    3.7821  2644.00  1.4167E+00  1.4557E-03
    3.7879  2640.00  1.4165E+00  1.4662E-03
    3.7936  2636.00  1.4163E+00  1.4768E-03
    3.7994  2632.00  1.4160E+00  1.4874E-03
    3.8052  2628.00  1.4158E+00  1.4982E-03
    3.8110  2624.00  1.4155E+00  1.5091E-03
    3.8168  2620.00  1.4153E+00  1.5201E-03
    3.8226  2616.00  1.4151E+00  1.5313E-03
    3.8285  2612.00  1.4148E+00  1.5425E-03
    3.8344  2608.00  1.4146E+00  1.5539E-03
    3.8402  2604.00  1.4143E+00  1.5654E-03
    3.8462  2600.00  1.4141E+00  1.5770E-03
    3.8521  2596.00  1.4138E+00  1.5887E-03
    3.8580  2592.00  1.4135E+00  1.6006E-03
    3.8640  2588.00  1.4133E+00  1.6126E-03
    3.8700  2584.00  1.4130E+00  1.6247E-03
    3.8760  2580.00  1.4128E+00  1.6369E-03
    3.8820  2576.00  1.4125E+00  1.6493E-03
    3.8880  2572.00  1.4122E+00  1.6618E-03
    3.8941  2568.00  1.4120E+00  1.6745E-03
    3.9002  2564.00  1.4117E+00  1.6873E-03
    3.9062  2560.00  1.4114E+00  1.7002E-03
    3.9124  2556.00  1.4112E+00  1.7133E-03
    3.9185  2552.00  1.4109E+00  1.7266E-03
    3.9246  2548.00  1.4106E+00  1.7400E-03
    3.9308  2544.00  1.4103E+00  1.7535E-03
    3.9370  2540.00  1.4100E+00  1.7672E-03
    3.9432  2536.00  1.4098E+00  1.7810E-03
    3.9494  2532.00  1.4095E+00  1.7950E-03
    3.9557  2528.00  1.4092E+00  1.8092E-03
    3.9620  2524.00  1.4089E+00  1.8235E-03
    3.9683  2520.00  1.4086E+00  1.8380E-03
    3.9746  2516.00  1.4083E+00  1.8526E-03
    3.9809  2512.00  1.4080E+00  1.8675E-03
    3.9872  2508.00  1.4077E+00  1.8825E-03
    3.9936  2504.00  1.4074E+00  1.8977E-03
    4.0000  2500.00  1.4071E+00  1.9130E-03
    4.0064  2496.00  1.4068E+00  1.9285E-03
    4.0128  2492.00  1.4065E+00  1.9443E-03
    4.0193  2488.00  1.4062E+00  1.9602E-03
    4.0258  2484.00  1.4059E+00  1.9763E-03
    4.0323  2480.00  1.4056E+00  1.9925E-03
    4.0388  2476.00  1.4052E+00  2.0090E-03
    4.0453  2472.00  1.4049E+00  2.0257E-03
    4.0519  2468.00  1.4046E+00  2.0426E-03
    4.0584  2464.00  1.4043E+00  2.0597E-03
    4.0650  2460.00  1.4039E+00  2.0770E-03
    4.0717  2456.00  1.4036E+00  2.0945E-03
    4.0783  2452.00  1.4033E+00  2.1122E-03
    4.0850  2448.00  1.4029E+00  2.1302E-03
    4.0917  2444.00  1.4026E+00  2.1484E-03
    4.0984  2440.00  1.4023E+00  2.1668E-03
    4.1051  2436.00  1.4019E+00  2.1854E-03
    4.1118  2432.00  1.4016E+00  2.2042E-03
    4.1186  2428.00  1.4012E+00  2.2233E-03
    4.1254  2424.00  1.4009E+00  2.2427E-03
    4.1322  2420.00  1.4005E+00  2.2623E-03
    4.1391  2416.00  1.4001E+00  2.2821E-03
    4.1459  2412.00  1.3998E+00  2.3022E-03
    4.1528  2408.00  1.3994E+00  2.3226E-03
    4.1597  2404.00  1.3990E+00  2.3432E-03
    4.1667  2400.00  1.3987E+00  2.3641E-03
    4.1736  2396.00  1.3983E+00  2.3852E-03
    4.1806  2392.00  1.3979E+00  2.4067E-03
    4.1876  2388.00  1.3975E+00  2.4284E-03
    4.1946  2384.00  1.3971E+00  2.4504E-03
    4.2017  2380.00  1.3968E+00  2.4727E-03
    4.2088  2376.00  1.3964E+00  2.4953E-03
    4.2159  2372.00  1.3960E+00  2.5182E-03
    4.2230  2368.00  1.3956E+00  2.5414E-03
    4.2301  2364.00  1.3952E+00  2.5649E-03
    4.2373  2360.00  1.3948E+00  2.5888E-03
    4.2445  2356.00  1.3943E+00  2.6129E-03
    4.2517  2352.00  1.3939E+00  2.6374E-03
    4.2589  2348.00  1.3935E+00  2.6623E-03
    4.2662  2344.00  1.3931E+00  2.6875E-03
    4.2735  2340.00  1.3927E+00  2.7130E-03
    4.2808  2336.00  1.3922E+00  2.7389E-03
    4.2882  2332.00  1.3918E+00  2.7651E-03
    4.2955  2328.00  1.3914E+00  2.7917E-03
    4.3029  2324.00  1.3909E+00  2.8187E-03
    4.3103  2320.00  1.3905E+00  2.8461E-03
    4.3178  2316.00  1.3900E+00  2.8739E-03
    4.3253  2312.00  1.3896E+00  2.9021E-03
    4.3328  2308.00  1.3891E+00  2.9307E-03
    4.3403  2304.00  1.3887E+00  2.9597E-03
    4.3478  2300.00  1.3882E+00  2.9891E-03
    4.3554  2296.00  1.3877E+00  3.0189E-03
    4.3630  2292.00  1.3872E+00  3.0492E-03
    4.3706  2288.00  1.3868E+00  3.0800E-03
    4.3783  2284.00  1.3863E+00  3.1112E-03
    4.3860  2280.00  1.3858E+00  3.1428E-03
    4.3937  2276.00  1.3853E+00  3.1750E-03
    4.4014  2272.00  1.3848E+00  3.2076E-03
    4.4092  2268.00  1.3843E+00  3.2407E-03
    4.4170  2264.00  1.3838E+00  3.2743E-03
    4.4248  2260.00  1.3833E+00  3.3085E-03
    4.4326  2256.00  1.3827E+00  3.3431E-03
    4.4405  2252.00  1.3822E+00  3.3783E-03
    4.4484  2248.00  1.3817E+00  3.4141E-03
    4.4563  2244.00  1.3811E+00  3.4504E-03
    4.4643  2240.00  1.3806E+00  3.4873E-03
    4.4723  2236.00  1.3800E+00  3.5247E-03
    4.4803  2232.00  1.3795E+00  3.5628E-03
    4.4883  2228.00  1.3789E+00  3.6015E-03
    4.4964  2224.00  1.3784E+00  3.6408E-03
    4.5045  2220.00  1.3778E+00  3.6807E-03
    4.5126  2216.00  1.3772E+00  3.7213E-03
    4.5208  2212.00  1.3766E+00  3.7625E-03
    4.5290  2208.00  1.3760E+00  3.8044E-03
    4.5372  2204.00  1.3754E+00  3.8470E-03
    4.5455  2200.00  1.3748E+00  3.8903E-03
    4.5537  2196.00  1.3742E+00  3.9344E-03
    4.5620  2192.00  1.3736E+00  3.9791E-03
    4.5704  2188.00  1.3730E+00  4.0247E-03
    4.5788  2184.00  1.3724E+00  4.0710E-03
    4.5872  2180.00  1.3717E+00  4.1181E-03
    4.5956  2176.00  1.3711E+00  4.1660E-03
    4.6041  2172.00  1.3704E+00  4.2147E-03
    4.6125  2168.00  1.3698E+00  4.2643E-03
    4.6211  2164.00  1.3691E+00  4.3147E-03
    4.6296  2160.00  1.3684E+00  4.3661E-03
    4.6382  2156.00  1.3678E+00  4.4183E-03
    4.6468  2152.00  1.3671E+00  4.4715E-03
    4.6555  2148.00  1.3664E+00  4.5256E-03
    4.6642  2144.00  1.3657E+00  4.5807E-03
    4.6729  2140.00  1.3649E+00  4.6368E-03
    4.6816  2136.00  1.3642E+00  4.6939E-03
    4.6904  2132.00  1.3635E+00  4.7521E-03
    4.6992  2128.00  1.3628E+00  4.8113E-03
    4.7081  2124.00  1.3620E+00  4.8717E-03
    4.7170  2120.00  1.3612E+00  4.9331E-03
    4.7259  2116.00  1.3605E+00  4.9958E-03
    4.7348  2112.00  1.3597E+00  5.0596E-03
    4.7438  2108.00  1.3589E+00  5.1246E-03
    4.7529  2104.00  1.3581E+00  5.1909E-03
    4.7619  2100.00  1.3573E+00  5.2584E-03
    4.7710  2096.00  1.3565E+00  5.3273E-03
    4.7801  2092.00  1.3557E+00  5.3975E-03
    4.7893  2088.00  1.3548E+00  5.4691E-03
    4.7985  2084.00  1.3540E+00  5.5421E-03
    4.8077  2080.00  1.3531E+00  5.6165E-03
    4.8170  2076.00  1.3523E+00  5.6925E-03
    4.8263  2072.00  1.3514E+00  5.7700E-03
    4.8356  2068.00  1.3505E+00  5.8491E-03
    4.8450  2064.00  1.3496E+00  5.9298E-03
    4.8544  2060.00  1.3487E+00  6.0121E-03
    4.8638  2056.00  1.3477E+00  6.0962E-03
    4.8733  2052.00  1.3468E+00  6.1820E-03
    4.8828  2048.00  1.3458E+00  6.2697E-03
    4.8924  2044.00  1.3449E+00  6.3592E-03
    4.9020  2040.00  1.3439E+00  6.4506E-03
    4.9116  2036.00  1.3429E+00  6.5440E-03
    4.9213  2032.00  1.3419E+00  6.6394E-03
    4.9310  2028.00  1.3409E+00  6.7369E-03
    4.9407  2024.00  1.3398E+00  6.8365E-03
    4.9505  2020.00  1.3388E+00  6.9383E-03
    4.9603  2016.00  1.3377E+00  7.0425E-03
    4.9702  2012.00  1.3366E+00  7.1489E-03
    4.9801  2008.00  1.3355E+00  7.2578E-03
    4.9900  2004.00  1.3344E+00  7.3692E-03
    5.0000  2000.00  1.3333E+00  7.4832E-03
    5.0050  1998.00  1.3327E+00  7.5411E-03
    5.0100  1996.00  1.3321E+00  7.5998E-03
    5.0150  1994.00  1.3315E+00  7.6591E-03
    5.0201  1992.00  1.3310E+00  7.7191E-03
    5.0251  1990.00  1.3304E+00  7.7798E-03
    5.0302  1988.00  1.3298E+00  7.8412E-03
    5.0352  1986.00  1.3292E+00  7.9034E-03
    5.0403  1984.00  1.3286E+00  7.9663E-03
    5.0454  1982.00  1.3280E+00  8.0299E-03
    5.0505  1980.00  1.3274E+00  8.0943E-03
    5.0556  1978.00  1.3267E+00  8.1595E-03
    5.0607  1976.00  1.3261E+00  8.2254E-03
    5.0659  1974.00  1.3255E+00  8.2922E-03
    5.0710  1972.00  1.3249E+00  8.3598E-03
    5.0761  1970.00  1.3242E+00  8.4282E-03
    5.0813  1968.00  1.3236E+00  8.4974E-03
    5.0865  1966.00  1.3229E+00  8.5675E-03
    5.0916  1964.00  1.3223E+00  8.6385E-03
    5.0968  1962.00  1.3216E+00  8.7103E-03
    5.1020  1960.00  1.3210E+00  8.7831E-03
    5.1073  1958.00  1.3203E+00  8.8567E-03
    5.1125  1956.00  1.3196E+00  8.9313E-03
    5.1177  1954.00  1.3189E+00  9.0068E-03
    5.1230  1952.00  1.3183E+00  9.0833E-03
    5.1282  1950.00  1.3176E+00  9.1607E-03
    5.1335  1948.00  1.3169E+00  9.2392E-03
    5.1387  1946.00  1.3162E+00  9.3186E-03
    5.1440  1944.00  1.3155E+00  9.3991E-03
    5.1493  1942.00  1.3148E+00  9.4806E-03
    5.1546  1940.00  1.3140E+00  9.5632E-03
    5.1600  1938.00  1.3133E+00  9.6469E-03
    5.1653  1936.00  1.3126E+00  9.7316E-03
    5.1706  1934.00  1.3118E+00  9.8175E-03
    5.1760  1932.00  1.3111E+00  9.9046E-03
    5.1813  1930.00  1.3103E+00  9.9927E-03
    5.1867  1928.00  1.3096E+00  1.0082E-02
    5.1921  1926.00  1.3088E+00  1.0173E-02
    5.1975  1924.00  1.3081E+00  1.0264E-02
    5.2029  1922.00  1.3073E+00  1.0357E-02
    5.2083  1920.00  1.3065E+00  1.0452E-02
    5.2138  1918.00  1.3057E+00  1.0547E-02
    5.2192  1916.00  1.3049E+00  1.0644E-02
    5.2247  1914.00  1.3041E+00  1.0743E-02
    5.2301  1912.00  1.3033E+00  1.0842E-02
    5.2356  1910.00  1.3025E+00  1.0943E-02
    5.2411  1908.00  1.3017E+00  1.1046E-02
    5.2466  1906.00  1.3008E+00  1.1149E-02
    5.2521  1904.00  1.3000E+00  1.1255E-02
    5.2576  1902.00  1.2991E+00  1.1362E-02
    5.2632  1900.00  1.2983E+00  1.1470E-02
    5.2687  1898.00  1.2974E+00  1.1580E-02
    5.2743  1896.00  1.2965E+00  1.1691E-02
    5.2798  1894.00  1.2957E+00  1.1804E-02
    5.2854  1892.00  1.2948E+00  1.1919E-02
    5.2910  1890.00  1.2939E+00  1.2036E-02
    5.2966  1888.00  1.2930E+00  1.2154E-02
    5.3022  1886.00  1.2921E+00  1.2274E-02
    5.3079  1884.00  1.2911E+00  1.2395E-02
    5.3135  1882.00  1.2902E+00  1.2519E-02
    5.3191  1880.00  1.2893E+00  1.2644E-02
    5.3248  1878.00  1.2883E+00  1.2772E-02
    5.3305  1876.00  1.2874E+00  1.2901E-02
    5.3362  1874.00  1.2864E+00  1.3032E-02
    5.3419  1872.00  1.2854E+00  1.3165E-02
    5.3476  1870.00  1.2844E+00  1.3300E-02
    5.3533  1868.00  1.2834E+00  1.3438E-02
    5.3591  1866.00  1.2824E+00  1.3577E-02
    5.3648  1864.00  1.2814E+00  1.3719E-02
    5.3706  1862.00  1.2804E+00  1.3863E-02
    5.3763  1860.00  1.2793E+00  1.4009E-02
    5.3821  1858.00  1.2783E+00  1.4157E-02
    5.3879  1856.00  1.2772E+00  1.4308E-02
    5.3937  1854.00  1.2762E+00  1.4461E-02
    5.3996  1852.00  1.2751E+00  1.4617E-02
    5.4054  1850.00  1.2740E+00  1.4776E-02
    5.4113  1848.00  1.2729E+00  1.4936E-02
    5.4171  1846.00  1.2718E+00  1.5100E-02
    5.4230  1844.00  1.2706E+00  1.5266E-02
    5.4289  1842.00  1.2695E+00  1.5435E-02
    5.4348  1840.00  1.2684E+00  1.5607E-02
    5.4407  1838.00  1.2672E+00  1.5782E-02
    5.4466  1836.00  1.2660E+00  1.5960E-02
    5.4526  1834.00  1.2648E+00  1.6140E-02
    5.4585  1832.00  1.2636E+00  1.6324E-02
    5.4645  1830.00  1.2624E+00  1.6511E-02
    5.4705  1828.00  1.2612E+00  1.6702E-02
    5.4765  1826.00  1.2599E+00  1.6895E-02
    5.4825  1824.00  1.2587E+00  1.7092E-02
    5.4885  1822.00  1.2574E+00  1.7293E-02
    5.4945  1820.00  1.2561E+00  1.7497E-02
    5.5006  1818.00  1.2548E+00  1.7704E-02
    5.5066  1816.00  1.2535E+00  1.7916E-02
    5.5127  1814.00  1.2522E+00  1.8131E-02
    5.5188  1812.00  1.2509E+00  1.8350E-02
    5.5249  1810.00  1.2495E+00  1.8573E-02
    5.5310  1808.00  1.2481E+00  1.8800E-02
    5.5371  1806.00  1.2467E+00  1.9032E-02
    5.5432  1804.00  1.2453E+00  1.9268E-02
    5.5494  1802.00  1.2439E+00  1.9508E-02
    5.5556  1800.00  1.2425E+00  1.9753E-02
    5.5617  1798.00  1.2410E+00  2.0002E-02
    5.5679  1796.00  1.2395E+00  2.0256E-02
    5.5741  1794.00  1.2380E+00  2.0515E-02
    5.5804  1792.00  1.2365E+00  2.0779E-02
    5.5866  1790.00  1.2350E+00  2.1049E-02
    5.5928  1788.00  1.2335E+00  2.1323E-02
    5.5991  1786.00  1.2319E+00  2.1603E-02
    5.6054  1784.00  1.2303E+00  2.1889E-02
    5.6117  1782.00  1.2287E+00  2.2181E-02
    5.6180  1780.00  1.2271E+00  2.2478E-02
    5.6243  1778.00  1.2254E+00  2.2781E-02
    5.6306  1776.00  1.2237E+00  2.3091E-02
    5.6370  1774.00  1.2220E+00  2.3407E-02
    5.6433  1772.00  1.2203E+00  2.3729E-02
    5.6497  1770.00  1.2186E+00  2.4058E-02
    5.6561  1768.00  1.2168E+00  2.4395E-02
    5.6625  1766.00  1.2150E+00  2.4738E-02
    5.6689  1764.00  1.2132E+00  2.5089E-02
    5.6754  1762.00  1.2114E+00  2.5447E-02
    5.6818  1760.00  1.2096E+00  2.5813E-02
    5.6883  1758.00  1.2077E+00  2.6188E-02
    5.6948  1756.00  1.2058E+00  2.6570E-02
    5.7013  1754.00  1.2038E+00  2.6961E-02
    5.7078  1752.00  1.2019E+00  2.7361E-02
    5.7143  1750.00  1.1999E+00  2.7769E-02
    5.7208  1748.00  1.1979E+00  2.8187E-02
    5.7274  1746.00  1.1958E+00  2.8615E-02
    5.7339  1744.00  1.1937E+00  2.9053E-02
    5.7405  1742.00  1.1916E+00  2.9500E-02
    5.7471  1740.00  1.1895E+00  2.9959E-02
    5.7537  1738.00  1.1873E+00  3.0428E-02
    5.7604  1736.00  1.1851E+00  3.0908E-02
    5.7670  1734.00  1.1829E+00  3.1400E-02
    5.7737  1732.00  1.1806E+00  3.1904E-02
    5.7803  1730.00  1.1783E+00  3.2420E-02
    5.7870  1728.00  1.1760E+00  3.2950E-02
    5.7937  1726.00  1.1736E+00  3.3492E-02
    5.8005  1724.00  1.1712E+00  3.4048E-02
    5.8072  1722.00  1.1687E+00  3.4618E-02
    5.8140  1720.00  1.1662E+00  3.5202E-02
    5.8207  1718.00  1.1637E+00  3.5802E-02
    5.8275  1716.00  1.1611E+00  3.6418E-02
    5.8343  1714.00  1.1585E+00  3.7049E-02
    5.8411  1712.00  1.1559E+00  3.7698E-02
    5.8480  1710.00  1.1532E+00  3.8364E-02
    5.8548  1708.00  1.1504E+00  3.9047E-02
    5.8617  1706.00  1.1477E+00  3.9750E-02
    5.8685  1704.00  1.1448E+00  4.0472E-02
    5.8754  1702.00  1.1419E+00  4.1214E-02
    5.8824  1700.00  1.1390E+00  4.1977E-02
    5.8893  1698.00  1.1360E+00  4.2762E-02
    5.8962  1696.00  1.1330E+00  4.3569E-02
    5.9032  1694.00  1.1299E+00  4.4399E-02
    5.9102  1692.00  1.1268E+00  4.5254E-02
    5.9172  1690.00  1.1236E+00  4.6135E-02
    5.9242  1688.00  1.1203E+00  4.7041E-02
    5.9312  1686.00  1.1170E+00  4.7975E-02
    5.9382  1684.00  1.1136E+00  4.8938E-02
    5.9453  1682.00  1.1102E+00  4.9930E-02
    5.9524  1680.00  1.1067E+00  5.0954E-02
    5.9595  1678.00  1.1031E+00  5.2009E-02
    5.9666  1676.00  1.0994E+00  5.3099E-02
    5.9737  1674.00  1.0957E+00  5.4223E-02
    5.9809  1672.00  1.0919E+00  5.5385E-02
    5.9880  1670.00  1.0881E+00  5.6585E-02
    5.9952  1668.00  1.0842E+00  5.7825E-02
    6.0024  1666.00  1.0801E+00  5.9107E-02
    6.0096  1664.00  1.0760E+00  6.0433E-02
    6.0168  1662.00  1.0719E+00  6.1805E-02
    6.0241  1660.00  1.0676E+00  6.3225E-02
    6.0314  1658.00  1.0632E+00  6.4696E-02
    6.0386  1656.00  1.0588E+00  6.6220E-02
    6.0459  1654.00  1.0542E+00  6.7799E-02
    6.0533  1652.00  1.0496E+00  6.9437E-02
    6.0606  1650.00  1.0449E+00  7.1136E-02
    6.0680  1648.00  1.0400E+00  7.2900E-02
    6.0753  1646.00  1.0351E+00  7.4732E-02
    6.0827  1644.00  1.0300E+00  7.6636E-02
    6.0901  1642.00  1.0248E+00  7.8615E-02
    6.0976  1640.00  1.0195E+00  8.0673E-02
    6.1050  1638.00  1.0141E+00  8.2815E-02
    6.1125  1636.00  1.0086E+00  8.5046E-02
    6.1200  1634.00  1.0029E+00  8.7371E-02
    6.1275  1632.00  9.9709E-01  8.9795E-02
    6.1350  1630.00  9.9114E-01  9.2323E-02
    6.1425  1628.00  9.8505E-01  9.4963E-02
    6.1501  1626.00  9.7881E-01  9.7721E-02
    6.1576  1624.00  9.7241E-01  1.0060E-01
    6.1652  1622.00  9.6586E-01  1.0362E-01
    6.1728  1620.00  9.5914E-01  1.0678E-01
    6.1805  1618.00  9.5226E-01  1.1009E-01
    6.1881  1616.00  9.4519E-01  1.1355E-01
    6.1958  1614.00  9.3795E-01  1.1719E-01
    6.2035  1612.00  9.3052E-01  1.2101E-01
    6.2112  1610.00  9.2290E-01  1.2503E-01
    6.2189  1608.00  9.1508E-01  1.2926E-01
    6.2267  1606.00  9.0706E-01  1.3371E-01
    6.2344  1604.00  8.9882E-01  1.3840E-01
    6.2422  1602.00  8.9037E-01  1.4334E-01
    6.2500  1600.00  8.8170E-01  1.4856E-01
    6.2578  1598.00  8.7281E-01  1.5408E-01
    6.2657  1596.00  8.6368E-01  1.5992E-01
    6.2735  1594.00  8.5432E-01  1.6611E-01
    6.2814  1592.00  8.4472E-01  1.7266E-01
    6.2893  1590.00  8.3489E-01  1.7961E-01
    6.2972  1588.00  8.2481E-01  1.8700E-01
    6.3052  1586.00  8.1450E-01  1.9485E-01
    6.3131  1584.00  8.0396E-01  2.0320E-01
    6.3211  1582.00  7.9319E-01  2.1210E-01
    6.3291  1580.00  7.8220E-01  2.2158E-01
    6.3371  1578.00  7.7101E-01  2.3169E-01
    6.3452  1576.00  7.5964E-01  2.4249E-01
    6.3532  1574.00  7.4812E-01  2.5401E-01
    6.3613  1572.00  7.3647E-01  2.6631E-01
    6.3694  1570.00  7.2474E-01  2.7944E-01
    6.3776  1568.00  7.1298E-01  2.9346E-01
    6.3857  1566.00  7.0124E-01  3.0842E-01
    6.3939  1564.00  6.8959E-01  3.2435E-01
    6.4020  1562.00  6.7811E-01  3.4131E-01
    6.4103  1560.00  6.6690E-01  3.5931E-01
    6.4185  1558.00  6.5603E-01  3.7839E-01
    6.4267  1556.00  6.4561E-01  3.9854E-01
    6.4350  1554.00  6.3576E-01  4.1977E-01
    6.4433  1552.00  6.2655E-01  4.4204E-01
    6.4516  1550.00  6.1811E-01  4.6533E-01
    6.4599  1548.00  6.1051E-01  4.8958E-01
    6.4683  1546.00  6.0383E-01  5.1473E-01
    6.4767  1544.00  5.9815E-01  5.4071E-01
    6.4851  1542.00  5.9353E-01  5.6745E-01
    6.4935  1540.00  5.9000E-01  5.9488E-01
    6.5020  1538.00  5.8760E-01  6.2293E-01
    6.5104  1536.00  5.8636E-01  6.5153E-01
    6.5189  1534.00  5.8629E-01  6.8062E-01
    6.5274  1532.00  5.8741E-01  7.1014E-01
    6.5359  1530.00  5.8973E-01  7.4004E-01
    6.5445  1528.00  5.9326E-01  7.7028E-01
    6.5531  1526.00  5.9802E-01  8.0082E-01
    6.5617  1524.00  6.0402E-01  8.3162E-01
    6.5703  1522.00  6.1129E-01  8.6265E-01
    6.5789  1520.00  6.1985E-01  8.9389E-01
    6.5876  1518.00  6.2974E-01  9.2528E-01
    6.5963  1516.00  6.4099E-01  9.5681E-01
    6.6050  1514.00  6.5365E-01  9.8843E-01
    6.6138  1512.00  6.6776E-01  1.0201E+00
    6.6225  1510.00  6.8340E-01  1.0518E+00
    6.6313  1508.00  7.0061E-01  1.0833E+00
    6.6401  1506.00  7.1946E-01  1.1148E+00
    6.6489  1504.00  7.4002E-01  1.1460E+00
    6.6578  1502.00  7.6237E-01  1.1769E+00
    6.6667  1500.00  7.8656E-01  1.2073E+00
    6.6756  1498.00  8.1266E-01  1.2370E+00
    6.6845  1496.00  8.4073E-01  1.2660E+00
    6.6934  1494.00  8.7078E-01  1.2940E+00
    6.7024  1492.00  9.0284E-01  1.3208E+00
    6.7114  1490.00  9.3689E-01  1.3461E+00
    6.7204  1488.00  9.7286E-01  1.3696E+00
    6.7295  1486.00  1.0107E+00  1.3912E+00
    6.7385  1484.00  1.0501E+00  1.4104E+00
    6.7476  1482.00  1.0909E+00  1.4270E+00
    6.7568  1480.00  1.1328E+00  1.4407E+00
    6.7659  1478.00  1.1755E+00  1.4513E+00
    6.7751  1476.00  1.2183E+00  1.4587E+00
    6.7843  1474.00  1.2608E+00  1.4627E+00
    6.7935  1472.00  1.3024E+00  1.4634E+00
    6.8027  1470.00  1.3424E+00  1.4610E+00
    6.8120  1468.00  1.3804E+00  1.4559E+00
    6.8213  1466.00  1.4157E+00  1.4485E+00
    6.8306  1464.00  1.4480E+00  1.4396E+00
    6.8399  1462.00  1.4770E+00  1.4298E+00
    6.8493  1460.00  1.5025E+00  1.4201E+00
    6.8587  1458.00  1.5247E+00  1.4112E+00
    6.8681  1456.00  1.5440E+00  1.4042E+00
    6.8776  1454.00  1.5608E+00  1.3998E+00
    6.8871  1452.00  1.5760E+00  1.3989E+00
    6.8966  1450.00  1.5904E+00  1.4019E+00
    6.9061  1448.00  1.6053E+00  1.4093E+00
    6.9156  1446.00  1.6218E+00  1.4213E+00
    6.9252  1444.00  1.6415E+00  1.4376E+00
    6.9348  1442.00  1.6657E+00  1.4579E+00
    6.9444  1440.00  1.6959E+00  1.4813E+00
    6.9541  1438.00  1.7334E+00  1.5064E+00
    6.9638  1436.00  1.7793E+00  1.5317E+00
    6.9735  1434.00  1.8343E+00  1.5550E+00
    6.9832  1432.00  1.8986E+00  1.5739E+00
    6.9930  1430.00  1.9717E+00  1.5857E+00
    7.0028  1428.00  2.0524E+00  1.5876E+00
    7.0126  1426.00  2.1384E+00  1.5774E+00
    7.0225  1424.00  2.2266E+00  1.5533E+00
    7.0323  1422.00  2.3135E+00  1.5144E+00
    7.0423  1420.00  2.3952E+00  1.4613E+00
    7.0522  1418.00  2.4681E+00  1.3958E+00
    7.0621  1416.00  2.5296E+00  1.3207E+00
    7.0721  1414.00  2.5782E+00  1.2392E+00
    7.0822  1412.00  2.6136E+00  1.1550E+00
    7.0922  1410.00  2.6365E+00  1.0709E+00
    7.1023  1408.00  2.6482E+00  9.8933E-01
    7.1124  1406.00  2.6505E+00  9.1203E-01
    7.1225  1404.00  2.6451E+00  8.3999E-01
    7.1327  1402.00  2.6339E+00  7.7367E-01
    7.1429  1400.00  2.6182E+00  7.1315E-01
    7.1531  1398.00  2.5993E+00  6.5826E-01
    7.1633  1396.00  2.5783E+00  6.0864E-01
    7.1736  1394.00  2.5559E+00  5.6388E-01
    7.1839  1392.00  2.5327E+00  5.2353E-01
    7.1942  1390.00  2.5091E+00  4.8715E-01
    7.2046  1388.00  2.4856E+00  4.5432E-01
    7.2150  1386.00  2.4623E+00  4.2463E-01
    7.2254  1384.00  2.4394E+00  3.9775E-01
    7.2359  1382.00  2.4171E+00  3.7336E-01
    7.2464  1380.00  2.3953E+00  3.5117E-01
    7.2569  1378.00  2.3743E+00  3.3094E-01
    7.2674  1376.00  2.3539E+00  3.1246E-01
    7.2780  1374.00  2.3342E+00  2.9554E-01
    7.2886  1372.00  2.3152E+00  2.8000E-01
    7.2993  1370.00  2.2969E+00  2.6570E-01
    7.3099  1368.00  2.2792E+00  2.5252E-01
    7.3206  1366.00  2.2622E+00  2.4033E-01
    7.3314  1364.00  2.2458E+00  2.2905E-01
    7.3421  1362.00  2.2301E+00  2.1858E-01
    7.3529  1360.00  2.2149E+00  2.0885E-01
    7.3638  1358.00  2.2002E+00  1.9979E-01
    7.3746  1356.00  2.1861E+00  1.9133E-01
    7.3855  1354.00  2.1725E+00  1.8343E-01
    7.3964  1352.00  2.1593E+00  1.7603E-01
    7.4074  1350.00  2.1467E+00  1.6909E-01
    7.4184  1348.00  2.1344E+00  1.6258E-01
    7.4294  1346.00  2.1226E+00  1.5645E-01
    7.4405  1344.00  2.1112E+00  1.5068E-01
    7.4516  1342.00  2.1001E+00  1.4525E-01
    7.4627  1340.00  2.0894E+00  1.4011E-01
    7.4738  1338.00  2.0791E+00  1.3526E-01
    7.4850  1336.00  2.0690E+00  1.3067E-01
    7.4963  1334.00  2.0593E+00  1.2632E-01
    7.5075  1332.00  2.0499E+00  1.2219E-01
    7.5188  1330.00  2.0408E+00  1.1827E-01
    7.5301  1328.00  2.0319E+00  1.1455E-01
    7.5415  1326.00  2.0233E+00  1.1101E-01
    7.5529  1324.00  2.0150E+00  1.0764E-01
    7.5643  1322.00  2.0069E+00  1.0442E-01
    7.5758  1320.00  1.9990E+00  1.0136E-01
    7.5873  1318.00  1.9913E+00  9.8433E-02
    7.5988  1316.00  1.9839E+00  9.5638E-02
    7.6104  1314.00  1.9766E+00  9.2967E-02
    7.6220  1312.00  1.9696E+00  9.0411E-02
    7.6336  1310.00  1.9627E+00  8.7963E-02
    7.6453  1308.00  1.9560E+00  8.5619E-02
    7.6570  1306.00  1.9495E+00  8.3371E-02
    7.6687  1304.00  1.9431E+00  8.1214E-02
    7.6805  1302.00  1.9369E+00  7.9144E-02
    7.6923  1300.00  1.9308E+00  7.7156E-02
    7.7042  1298.00  1.9249E+00  7.5245E-02
    7.7160  1296.00  1.9191E+00  7.3407E-02
    7.7280  1294.00  1.9135E+00  7.1639E-02
    7.7399  1292.00  1.9080E+00  6.9937E-02
    7.7519  1290.00  1.9026E+00  6.8297E-02
    7.7640  1288.00  1.8974E+00  6.6717E-02
    7.7760  1286.00  1.8922E+00  6.5194E-02
    7.7882  1284.00  1.8872E+00  6.3725E-02
    7.8003  1282.00  1.8823E+00  6.2307E-02
    7.8125  1280.00  1.8775E+00  6.0938E-02
    7.8247  1278.00  1.8727E+00  5.9616E-02
    7.8370  1276.00  1.8681E+00  5.8338E-02
    7.8493  1274.00  1.8636E+00  5.7103E-02
    7.8616  1272.00  1.8592E+00  5.5908E-02
    7.8740  1270.00  1.8548E+00  5.4753E-02
    7.8864  1268.00  1.8506E+00  5.3634E-02
    7.8989  1266.00  1.8464E+00  5.2551E-02
    7.9114  1264.00  1.8423E+00  5.1502E-02
    7.9239  1262.00  1.8383E+00  5.0486E-02
    7.9365  1260.00  1.8344E+00  4.9501E-02
    7.9491  1258.00  1.8305E+00  4.8546E-02
    7.9618  1256.00  1.8267E+00  4.7620E-02
    7.9745  1254.00  1.8230E+00  4.6721E-02
    7.9872  1252.00  1.8194E+00  4.5849E-02
    8.0000  1250.00  1.8158E+00  4.5003E-02
    8.0128  1248.00  1.8122E+00  4.4180E-02
    8.0257  1246.00  1.8088E+00  4.3382E-02
    8.0386  1244.00  1.8054E+00  4.2606E-02
    8.0515  1242.00  1.8020E+00  4.1852E-02
    8.0645  1240.00  1.7987E+00  4.1119E-02
    8.0775  1238.00  1.7955E+00  4.0406E-02
    8.0906  1236.00  1.7923E+00  3.9713E-02
    8.1037  1234.00  1.7892E+00  3.9038E-02
    8.1169  1232.00  1.7861E+00  3.8382E-02
    8.1301  1230.00  1.7831E+00  3.7743E-02
    8.1433  1228.00  1.7801E+00  3.7120E-02
    8.1566  1226.00  1.7772E+00  3.6515E-02
    8.1699  1224.00  1.7743E+00  3.5924E-02
    8.1833  1222.00  1.7714E+00  3.5349E-02
    8.1967  1220.00  1.7686E+00  3.4789E-02
    8.2102  1218.00  1.7658E+00  3.4243E-02
    8.2237  1216.00  1.7631E+00  3.3711E-02
    8.2372  1214.00  1.7604E+00  3.3191E-02
    8.2508  1212.00  1.7578E+00  3.2685E-02
    8.2645  1210.00  1.7552E+00  3.2191E-02
    8.2781  1208.00  1.7526E+00  3.1709E-02
    8.2919  1206.00  1.7501E+00  3.1239E-02
    8.3056  1204.00  1.7476E+00  3.0780E-02
    8.3195  1202.00  1.7451E+00  3.0332E-02
    8.3333  1200.00  1.7427E+00  2.9895E-02
    8.3472  1198.00  1.7403E+00  2.9468E-02
    8.3612  1196.00  1.7379E+00  2.9050E-02
    8.3752  1194.00  1.7356E+00  2.8643E-02
    8.3893  1192.00  1.7332E+00  2.8245E-02
    8.4034  1190.00  1.7310E+00  2.7856E-02
    8.4175  1188.00  1.7287E+00  2.7475E-02
    8.4317  1186.00  1.7265E+00  2.7104E-02
    8.4459  1184.00  1.7243E+00  2.6741E-02
    8.4602  1182.00  1.7221E+00  2.6385E-02
    8.4746  1180.00  1.7200E+00  2.6038E-02
    8.4890  1178.00  1.7178E+00  2.5699E-02
    8.5034  1176.00  1.7157E+00  2.5366E-02
    8.5179  1174.00  1.7137E+00  2.5041E-02
    8.5324  1172.00  1.7116E+00  2.4723E-02
    8.5470  1170.00  1.7096E+00  2.4412E-02
    8.5616  1168.00  1.7076E+00  2.4108E-02
    8.5763  1166.00  1.7056E+00  2.3810E-02
    8.5911  1164.00  1.7036E+00  2.3519E-02
    8.6059  1162.00  1.7017E+00  2.3233E-02
    8.6207  1160.00  1.6998E+00  2.2954E-02
    8.6356  1158.00  1.6979E+00  2.2680E-02
    8.6505  1156.00  1.6960E+00  2.2413E-02
    8.6655  1154.00  1.6941E+00  2.2150E-02
    8.6806  1152.00  1.6923E+00  2.1894E-02
    8.6957  1150.00  1.6905E+00  2.1642E-02
    8.7108  1148.00  1.6887E+00  2.1396E-02
    8.7260  1146.00  1.6869E+00  2.1155E-02
    8.7413  1144.00  1.6851E+00  2.0918E-02
    8.7566  1142.00  1.6833E+00  2.0687E-02
    8.7719  1140.00  1.6816E+00  2.0460E-02
    8.7873  1138.00  1.6799E+00  2.0238E-02
    8.8028  1136.00  1.6781E+00  2.0020E-02
    8.8183  1134.00  1.6765E+00  1.9807E-02
    8.8339  1132.00  1.6748E+00  1.9597E-02
    8.8496  1130.00  1.6731E+00  1.9393E-02
    8.8652  1128.00  1.6714E+00  1.9192E-02
    8.8810  1126.00  1.6698E+00  1.8995E-02
    8.8968  1124.00  1.6682E+00  1.8802E-02
    8.9127  1122.00  1.6665E+00  1.8613E-02
    8.9286  1120.00  1.6649E+00  1.8428E-02
    8.9445  1118.00  1.6633E+00  1.8247E-02
    8.9606  1116.00  1.6618E+00  1.8069E-02
    8.9767  1114.00  1.6602E+00  1.7895E-02
    8.9928  1112.00  1.6586E+00  1.7724E-02
    9.0090  1110.00  1.6571E+00  1.7557E-02
    9.0253  1108.00  1.6555E+00  1.7393E-02
    9.0416  1106.00  1.6540E+00  1.7232E-02
    9.0580  1104.00  1.6525E+00  1.7074E-02
    9.0744  1102.00  1.6510E+00  1.6920E-02
    9.0909  1100.00  1.6495E+00  1.6769E-02
    9.1075  1098.00  1.6480E+00  1.6621E-02
    9.1241  1096.00  1.6465E+00  1.6476E-02
    9.1408  1094.00  1.6450E+00  1.6334E-02
    9.1575  1092.00  1.6435E+00  1.6195E-02
    9.1743  1090.00  1.6421E+00  1.6058E-02
    9.1912  1088.00  1.6406E+00  1.5925E-02
    9.2081  1086.00  1.6392E+00  1.5795E-02
    9.2251  1084.00  1.6377E+00  1.5667E-02
    9.2421  1082.00  1.6363E+00  1.5542E-02
    9.2593  1080.00  1.6349E+00  1.5419E-02
    9.2764  1078.00  1.6335E+00  1.5300E-02
    9.2937  1076.00  1.6320E+00  1.5183E-02
    9.3110  1074.00  1.6306E+00  1.5068E-02
    9.3284  1072.00  1.6292E+00  1.4956E-02
    9.3458  1070.00  1.6278E+00  1.4847E-02
    9.3633  1068.00  1.6264E+00  1.4741E-02
    9.3809  1066.00  1.6250E+00  1.4636E-02
    9.3985  1064.00  1.6236E+00  1.4535E-02
    9.4162  1062.00  1.6222E+00  1.4436E-02
    9.4340  1060.00  1.6208E+00  1.4339E-02
    9.4518  1058.00  1.6195E+00  1.4245E-02
    9.4697  1056.00  1.6181E+00  1.4153E-02
    9.4877  1054.00  1.6167E+00  1.4064E-02
    9.5057  1052.00  1.6153E+00  1.3977E-02
    9.5238  1050.00  1.6139E+00  1.3892E-02
    9.5420  1048.00  1.6126E+00  1.3811E-02
    9.5602  1046.00  1.6112E+00  1.3731E-02
    9.5785  1044.00  1.6098E+00  1.3654E-02
    9.5969  1042.00  1.6084E+00  1.3580E-02
    9.6154  1040.00  1.6071E+00  1.3508E-02
    9.6339  1038.00  1.6057E+00  1.3438E-02
    9.6525  1036.00  1.6043E+00  1.3371E-02
    9.6712  1034.00  1.6029E+00  1.3307E-02
    9.6899  1032.00  1.6016E+00  1.3245E-02
    9.7087  1030.00  1.6002E+00  1.3185E-02
    9.7276  1028.00  1.5988E+00  1.3129E-02
    9.7466  1026.00  1.5974E+00  1.3075E-02
    9.7656  1024.00  1.5960E+00  1.3024E-02
    9.7847  1022.00  1.5946E+00  1.2975E-02
    9.8039  1020.00  1.5932E+00  1.2930E-02
    9.8232  1018.00  1.5918E+00  1.2887E-02
    9.8425  1016.00  1.5904E+00  1.2847E-02
    9.8619  1014.00  1.5889E+00  1.2810E-02
    9.8814  1012.00  1.5875E+00  1.2777E-02
    9.9010  1010.00  1.5861E+00  1.2747E-02
    9.9206  1008.00  1.5846E+00  1.2720E-02
    9.9404  1006.00  1.5831E+00  1.2696E-02
    9.9602  1004.00  1.5817E+00  1.2676E-02
    9.9800  1002.00  1.5802E+00  1.2660E-02
   10.0000  1000.00  1.5787E+00  1.2647E-02
   10.0200   998.00  1.5772E+00  1.2639E-02
   10.0402   996.00  1.5757E+00  1.2635E-02
   10.0604   994.00  1.5741E+00  1.2635E-02
   10.0806   992.00  1.5726E+00  1.2640E-02
   10.1010   990.00  1.5710E+00  1.2649E-02
   10.1215   988.00  1.5694E+00  1.2664E-02
   10.1420   986.00  1.5678E+00  1.2684E-02
   10.1626   984.00  1.5662E+00  1.2710E-02
   10.1833   982.00  1.5645E+00  1.2741E-02
   10.2041   980.00  1.5628E+00  1.2779E-02
   10.2249   978.00  1.5611E+00  1.2824E-02
   10.2459   976.00  1.5594E+00  1.2877E-02
   10.2669   974.00  1.5576E+00  1.2937E-02
   10.2881   972.00  1.5558E+00  1.3005E-02
   10.3093   970.00  1.5540E+00  1.3083E-02
   10.3306   968.00  1.5521E+00  1.3170E-02
   10.3520   966.00  1.5502E+00  1.3267E-02
   10.3734   964.00  1.5482E+00  1.3377E-02
   10.3950   962.00  1.5462E+00  1.3498E-02
   10.4167   960.00  1.5442E+00  1.3633E-02
   10.4384   958.00  1.5421E+00  1.3783E-02
   10.4603   956.00  1.5399E+00  1.3949E-02
   10.4822   954.00  1.5377E+00  1.4132E-02
   10.5042   952.00  1.5354E+00  1.4336E-02
   10.5263   950.00  1.5330E+00  1.4561E-02
   10.5485   948.00  1.5306E+00  1.4810E-02
   10.5708   946.00  1.5280E+00  1.5086E-02
   10.5932   944.00  1.5254E+00  1.5393E-02
   10.6157   942.00  1.5227E+00  1.5733E-02
   10.6383   940.00  1.5198E+00  1.6111E-02
   10.6610   938.00  1.5168E+00  1.6532E-02
   10.6838   936.00  1.5137E+00  1.7002E-02
   10.7066   934.00  1.5104E+00  1.7527E-02
   10.7296   932.00  1.5070E+00  1.8117E-02
   10.7527   930.00  1.5033E+00  1.8781E-02
   10.7759   928.00  1.4995E+00  1.9530E-02
   10.7991   926.00  1.4954E+00  2.0379E-02
   10.8225   924.00  1.4910E+00  2.1346E-02
   10.8460   922.00  1.4863E+00  2.2451E-02
   10.8696   920.00  1.4813E+00  2.3721E-02
   10.8932   918.00  1.4760E+00  2.5189E-02
   10.9170   916.00  1.4701E+00  2.6897E-02
   10.9409   914.00  1.4638E+00  2.8898E-02
   10.9649   912.00  1.4568E+00  3.1260E-02
   10.9890   910.00  1.4492E+00  3.4074E-02
   11.0132   908.00  1.4408E+00  3.7458E-02
   11.0375   906.00  1.4314E+00  4.1573E-02
   11.0619   904.00  1.4210E+00  4.6639E-02
   11.0865   902.00  1.4092E+00  5.2961E-02
   11.1111   900.00  1.3959E+00  6.0975E-02
   11.1359   898.00  1.3807E+00  7.1316E-02
   11.1607   896.00  1.3634E+00  8.4921E-02
   11.1857   894.00  1.3438E+00  1.0321E-01
   11.2108   892.00  1.3218E+00  1.2838E-01
   11.2360   890.00  1.2983E+00  1.6376E-01
   11.2613   888.00  1.2761E+00  2.1426E-01
   11.2867   886.00  1.2624E+00  2.8591E-01
   11.3122   884.00  1.2730E+00  3.8203E-01
   11.3379   882.00  1.3324E+00  4.9205E-01
   11.3636   880.00  1.4575E+00  5.7846E-01
   11.3895   878.00  1.6241E+00  5.8969E-01
   11.4155   876.00  1.7653E+00  5.1414E-01
   11.4416   874.00  1.8377E+00  4.0070E-01
   11.4679   872.00  1.8533E+00  2.9829E-01
   11.4943   870.00  1.8406E+00  2.2198E-01
   11.5207   868.00  1.8181E+00  1.6851E-01
   11.5473   866.00  1.7940E+00  1.3125E-01
   11.5741   864.00  1.7714E+00  1.0490E-01
   11.6009   862.00  1.7511E+00  8.5826E-02
   11.6279   860.00  1.7333E+00  7.1701E-02
   11.6550   858.00  1.7176E+00  6.1006E-02
   11.6822   856.00  1.7039E+00  5.2745E-02
   11.7096   854.00  1.6918E+00  4.6248E-02
   11.7371   852.00  1.6810E+00  4.1056E-02
   11.7647   850.00  1.6713E+00  3.6848E-02
   11.7925   848.00  1.6627E+00  3.3395E-02
   11.8203   846.00  1.6548E+00  3.0530E-02
   11.8483   844.00  1.6477E+00  2.8128E-02
   11.8765   842.00  1.6411E+00  2.6096E-02
   11.9048   840.00  1.6351E+00  2.4365E-02
   11.9332   838.00  1.6295E+00  2.2878E-02
   11.9617   836.00  1.6243E+00  2.1593E-02
   11.9904   834.00  1.6195E+00  2.0477E-02
   12.0192   832.00  1.6149E+00  1.9502E-02
   12.0482   830.00  1.6106E+00  1.8647E-02
   12.0773   828.00  1.6066E+00  1.7893E-02
   12.1065   826.00  1.6028E+00  1.7227E-02
   12.1359   824.00  1.5991E+00  1.6637E-02
   12.1655   822.00  1.5956E+00  1.6112E-02
   12.1951   820.00  1.5923E+00  1.5645E-02
   12.2249   818.00  1.5891E+00  1.5228E-02
   12.2549   816.00  1.5860E+00  1.4857E-02
   12.2850   814.00  1.5830E+00  1.4525E-02
   12.3153   812.00  1.5801E+00  1.4230E-02
   12.3457   810.00  1.5773E+00  1.3966E-02
   12.3762   808.00  1.5746E+00  1.3732E-02
   12.4069   806.00  1.5719E+00  1.3525E-02
   12.4378   804.00  1.5694E+00  1.3343E-02
   12.4688   802.00  1.5668E+00  1.3184E-02
   12.5000   800.00  1.5643E+00  1.3045E-02
   12.5313   798.00  1.5619E+00  1.2928E-02
   12.5628   796.00  1.5595E+00  1.2829E-02
   12.5945   794.00  1.5571E+00  1.2749E-02
   12.6263   792.00  1.5548E+00  1.2686E-02
   12.6582   790.00  1.5524E+00  1.2641E-02
   12.6904   788.00  1.5501E+00  1.2613E-02
   12.7226   786.00  1.5478E+00  1.2602E-02
   12.7551   784.00  1.5455E+00  1.2608E-02
   12.7877   782.00  1.5433E+00  1.2632E-02
   12.8205   780.00  1.5410E+00  1.2675E-02
   12.8535   778.00  1.5387E+00  1.2736E-02
   12.8866   776.00  1.5364E+00  1.2817E-02
   12.9199   774.00  1.5341E+00  1.2919E-02
   12.9534   772.00  1.5317E+00  1.3044E-02
   12.9870   770.00  1.5294E+00  1.3195E-02
   13.0208   768.00  1.5270E+00  1.3372E-02
   13.0548   766.00  1.5245E+00  1.3580E-02
   13.0890   764.00  1.5221E+00  1.3821E-02
   13.1234   762.00  1.5195E+00  1.4101E-02
   13.1579   760.00  1.5169E+00  1.4423E-02
   13.1926   758.00  1.5143E+00  1.4796E-02
   13.2275   756.00  1.5115E+00  1.5226E-02
   13.2626   754.00  1.5087E+00  1.5724E-02
   13.2979   752.00  1.5057E+00  1.6300E-02
   13.3333   750.00  1.5026E+00  1.6971E-02
   13.3690   748.00  1.4994E+00  1.7755E-02
   13.4048   746.00  1.4960E+00  1.8675E-02
   13.4409   744.00  1.4924E+00  1.9764E-02
   13.4771   742.00  1.4886E+00  2.1060E-02
   13.5135   740.00  1.4845E+00  2.2615E-02
   13.5501   738.00  1.4802E+00  2.4501E-02
   13.5870   736.00  1.4755E+00  2.6810E-02
   13.6240   734.00  1.4704E+00  2.9672E-02
   13.6612   732.00  1.4648E+00  3.3265E-02
   13.6986   730.00  1.4589E+00  3.7838E-02
   13.7363   728.00  1.4524E+00  4.3746E-02
   13.7741   726.00  1.4456E+00  5.1494E-02
   13.8122   724.00  1.4386E+00  6.1788E-02
   13.8504   722.00  1.4322E+00  7.5576E-02
   13.8889   720.00  1.4278E+00  9.3966E-02
   13.9276   718.00  1.4281E+00  1.1774E-01
   13.9665   716.00  1.4378E+00  1.4590E-01
   14.0056   714.00  1.4617E+00  1.7307E-01
   14.0449   712.00  1.4999E+00  1.8869E-01
   14.0845   710.00  1.5422E+00  1.8401E-01
   14.1243   708.00  1.5747E+00  1.6181E-01
   14.1643   706.00  1.5919E+00  1.3308E-01
   14.2045   704.00  1.5967E+00  1.0647E-01
   14.2450   702.00  1.5944E+00  8.5091E-02
   14.2857   700.00  1.5888E+00  6.8889E-02
   14.3266   698.00  1.5820E+00  5.6814E-02
   14.3678   696.00  1.5749E+00  4.7794E-02
   14.4092   694.00  1.5682E+00  4.0984E-02
   14.4509   692.00  1.5619E+00  3.5770E-02
   14.4928   690.00  1.5560E+00  3.1719E-02
   14.5349   688.00  1.5506E+00  2.8528E-02
   14.5773   686.00  1.5457E+00  2.5979E-02
   14.6199   684.00  1.5411E+00  2.3920E-02
   14.6628   682.00  1.5368E+00  2.2238E-02
   14.7059   680.00  1.5328E+00  2.0851E-02
   14.7493   678.00  1.5291E+00  1.9697E-02
   14.7929   676.00  1.5255E+00  1.8730E-02
   14.8368   674.00  1.5222E+00  1.7915E-02
   14.8810   672.00  1.5190E+00  1.7223E-02
   14.9254   670.00  1.5159E+00  1.6634E-02
   14.9701   668.00  1.5130E+00  1.6130E-02
   15.0150   666.00  1.5101E+00  1.5698E-02
   15.0602   664.00  1.5074E+00  1.5327E-02
   15.1057   662.00  1.5047E+00  1.5008E-02
   15.1515   660.00  1.5021E+00  1.4733E-02
   15.1976   658.00  1.4996E+00  1.4497E-02
   15.2439   656.00  1.4972E+00  1.4295E-02
   15.2905   654.00  1.4947E+00  1.4122E-02
   15.3374   652.00  1.4924E+00  1.3975E-02
   15.3846   650.00  1.4900E+00  1.3851E-02
   15.4321   648.00  1.4877E+00  1.3748E-02
   15.4799   646.00  1.4854E+00  1.3663E-02
   15.5280   644.00  1.4832E+00  1.3595E-02
   15.5763   642.00  1.4809E+00  1.3542E-02
   15.6250   640.00  1.4787E+00  1.3502E-02
   15.6740   638.00  1.4765E+00  1.3476E-02
   15.7233   636.00  1.4744E+00  1.3460E-02
   15.7729   634.00  1.4722E+00  1.3456E-02
   15.8228   632.00  1.4700E+00  1.3462E-02
   15.8730   630.00  1.4679E+00  1.3477E-02
   15.9236   628.00  1.4657E+00  1.3500E-02
   15.9744   626.00  1.4635E+00  1.3533E-02
   16.0256   624.00  1.4614E+00  1.3572E-02
   16.0772   622.00  1.4592E+00  1.3620E-02
   16.1290   620.00  1.4571E+00  1.3674E-02
   16.1812   618.00  1.4549E+00  1.3736E-02
   16.2338   616.00  1.4527E+00  1.3804E-02
   16.2866   614.00  1.4506E+00  1.3878E-02
   16.3399   612.00  1.4484E+00  1.3959E-02
   16.3934   610.00  1.4462E+00  1.4045E-02
   16.4474   608.00  1.4440E+00  1.4138E-02
   16.5017   606.00  1.4418E+00  1.4236E-02
   16.5563   604.00  1.4396E+00  1.4341E-02
   16.6113   602.00  1.4373E+00  1.4451E-02
   16.6667   600.00  1.4351E+00  1.4566E-02
   16.7224   598.00  1.4328E+00  1.4688E-02
   16.7785   596.00  1.4305E+00  1.4815E-02
   16.8350   594.00  1.4282E+00  1.4947E-02
   16.8919   592.00  1.4259E+00  1.5086E-02
   16.9492   590.00  1.4235E+00  1.5230E-02
   17.0068   588.00  1.4212E+00  1.5379E-02
   17.0648   586.00  1.4188E+00  1.5535E-02
   17.1233   584.00  1.4164E+00  1.5696E-02
   17.1821   582.00  1.4139E+00  1.5863E-02
   17.2414   580.00  1.4115E+00  1.6036E-02
   17.3010   578.00  1.4090E+00  1.6216E-02
   17.3611   576.00  1.4065E+00  1.6401E-02
   17.4216   574.00  1.4039E+00  1.6593E-02
   17.4825   572.00  1.4014E+00  1.6791E-02
   17.5439   570.00  1.3988E+00  1.6996E-02
   17.6056   568.00  1.3961E+00  1.7208E-02
   17.6678   566.00  1.3935E+00  1.7426E-02
   17.7305   564.00  1.3908E+00  1.7652E-02
   17.7936   562.00  1.3881E+00  1.7885E-02
   17.8571   560.00  1.3853E+00  1.8125E-02
   17.9211   558.00  1.3825E+00  1.8373E-02
   17.9856   556.00  1.3797E+00  1.8629E-02
   18.0505   554.00  1.3768E+00  1.8893E-02
   18.1159   552.00  1.3738E+00  1.9165E-02
   18.1818   550.00  1.3709E+00  1.9446E-02
   18.2482   548.00  1.3679E+00  1.9736E-02
   18.3150   546.00  1.3648E+00  2.0035E-02
   18.3824   544.00  1.3617E+00  2.0343E-02
   18.4502   542.00  1.3586E+00  2.0662E-02
   18.5185   540.00  1.3554E+00  2.0990E-02
   18.5874   538.00  1.3521E+00  2.1329E-02
   18.6567   536.00  1.3488E+00  2.1679E-02
   18.7266   534.00  1.3455E+00  2.2040E-02
   18.7970   532.00  1.3421E+00  2.2413E-02
   18.8679   530.00  1.3386E+00  2.2798E-02
   18.9394   528.00  1.3351E+00  2.3196E-02
   19.0114   526.00  1.3315E+00  2.3607E-02
   19.0840   524.00  1.3279E+00  2.4032E-02
   19.1571   522.00  1.3241E+00  2.4470E-02
   19.2308   520.00  1.3203E+00  2.4924E-02
   19.3050   518.00  1.3165E+00  2.5393E-02
   19.3798   516.00  1.3126E+00  2.5878E-02
   19.4553   514.00  1.3086E+00  2.6380E-02
   19.5312   512.00  1.3045E+00  2.6899E-02
   19.6078   510.00  1.3003E+00  2.7436E-02
   19.6850   508.00  1.2961E+00  2.7993E-02
   19.7628   506.00  1.2917E+00  2.8569E-02
   19.8413   504.00  1.2873E+00  2.9167E-02
   19.9203   502.00  1.2828E+00  2.9786E-02
   20.0000   500.00  1.2782E+00  3.0428E-02
   20.0803   498.00  1.2735E+00  3.1094E-02
   20.1613   496.00  1.2687E+00  3.1785E-02
   20.2429   494.00  1.2638E+00  3.2503E-02
   20.3252   492.00  1.2587E+00  3.3248E-02
   20.4082   490.00  1.2536E+00  3.4023E-02
   20.4918   488.00  1.2483E+00  3.4828E-02
   20.5761   486.00  1.2430E+00  3.5666E-02
   20.6612   484.00  1.2374E+00  3.6537E-02
   20.7469   482.00  1.2318E+00  3.7445E-02
   20.8333   480.00  1.2260E+00  3.8391E-02
   20.9205   478.00  1.2201E+00  3.9377E-02
   21.0084   476.00  1.2140E+00  4.0405E-02
   21.0970   474.00  1.2078E+00  4.1478E-02
   21.1864   472.00  1.2014E+00  4.2599E-02
   21.2766   470.00  1.1948E+00  4.3770E-02
   21.3675   468.00  1.1881E+00  4.4995E-02
   21.4592   466.00  1.1811E+00  4.6277E-02
   21.5517   464.00  1.1740E+00  4.7620E-02
   21.6450   462.00  1.1667E+00  4.9027E-02
   21.7391   460.00  1.1591E+00  5.0503E-02
   21.8341   458.00  1.1514E+00  5.2054E-02
   21.9298   456.00  1.1434E+00  5.3683E-02
   22.0264   454.00  1.1351E+00  5.5396E-02
   22.1239   452.00  1.1266E+00  5.7200E-02
   22.2222   450.00  1.1179E+00  5.9102E-02
   22.3214   448.00  1.1088E+00  6.1109E-02
   22.4215   446.00  1.0995E+00  6.3228E-02
   22.5225   444.00  1.0898E+00  6.5470E-02
   22.6244   442.00  1.0798E+00  6.7844E-02
   22.7273   440.00  1.0695E+00  7.0361E-02
   22.8311   438.00  1.0588E+00  7.3034E-02
   22.9358   436.00  1.0477E+00  7.5877E-02
   23.0415   434.00  1.0362E+00  7.8905E-02
   23.1481   432.00  1.0242E+00  8.2135E-02
   23.2558   430.00  1.0118E+00  8.5588E-02
   23.3645   428.00  9.9892E-01  8.9285E-02
   23.4742   426.00  9.8550E-01  9.3252E-02
   23.5849   424.00  9.7153E-01  9.7518E-02
   23.6967   422.00  9.5696E-01  1.0212E-01
   23.8095   420.00  9.4176E-01  1.0708E-01
   23.9234   418.00  9.2589E-01  1.1247E-01
   24.0385   416.00  9.0929E-01  1.1832E-01
   24.1546   414.00  8.9193E-01  1.2469E-01
   24.2718   412.00  8.7375E-01  1.3166E-01
   24.3902   410.00  8.5469E-01  1.3931E-01
   24.5098   408.00  8.3469E-01  1.4774E-01
   24.6305   406.00  8.1370E-01  1.5707E-01
   24.7525   404.00  7.9165E-01  1.6743E-01
   24.8756   402.00  7.6849E-01  1.7900E-01
   25.0000   400.00  7.4418E-01  1.9199E-01
   25.1256   398.00  7.1868E-01  2.0664E-01
   25.2525   396.00  6.9201E-01  2.2324E-01
   25.3807   394.00  6.6422E-01  2.4215E-01
   25.5102   392.00  6.3546E-01  2.6375E-01
   25.6410   390.00  6.0598E-01  2.8847E-01
   25.7732   388.00  5.7621E-01  3.1671E-01
   25.9067   386.00  5.4673E-01  3.4881E-01
   26.0417   384.00  5.1828E-01  3.8491E-01
   26.1780   382.00  4.9167E-01  4.2489E-01
   26.3158   380.00  4.6764E-01  4.6834E-01
   26.4550   378.00  4.4668E-01  5.1465E-01
   26.5957   376.00  4.2903E-01  5.6310E-01
   26.7380   374.00  4.1468E-01  6.1306E-01
   26.8817   372.00  4.0341E-01  6.6403E-01
   27.0270   370.00  3.9498E-01  7.1568E-01
   27.1739   368.00  3.8909E-01  7.6780E-01
   27.3224   366.00  3.8549E-01  8.2032E-01
   27.4725   364.00  3.8397E-01  8.7323E-01
   27.6243   362.00  3.8437E-01  9.2657E-01
   27.7778   360.00  3.8658E-01  9.8044E-01
   27.9330   358.00  3.9051E-01  1.0349E+00
   28.0899   356.00  3.9614E-01  1.0902E+00
   28.2486   354.00  4.0348E-01  1.1463E+00
   28.4091   352.00  4.1256E-01  1.2035E+00
   28.5714   350.00  4.2348E-01  1.2620E+00
   28.7356   348.00  4.3634E-01  1.3218E+00
   28.9017   346.00  4.5132E-01  1.3831E+00
   29.0698   344.00  4.6861E-01  1.4463E+00
   29.2398   342.00  4.8847E-01  1.5114E+00
   29.4118   340.00  5.1122E-01  1.5786E+00
   29.5858   338.00  5.3727E-01  1.6483E+00
   29.7619   336.00  5.6710E-01  1.7205E+00
   29.9401   334.00  6.0129E-01  1.7955E+00
   30.1205   332.00  6.4059E-01  1.8736E+00
   30.3030   330.00  6.8588E-01  1.9548E+00
   30.4878   328.00  7.3827E-01  2.0392E+00
   30.6748   326.00  7.9911E-01  2.1269E+00
   30.8642   324.00  8.7006E-01  2.2175E+00
   31.0559   322.00  9.5312E-01  2.3106E+00
   31.2500   320.00  1.0507E+00  2.4051E+00
   31.4465   318.00  1.1656E+00  2.4993E+00
   31.6456   316.00  1.3009E+00  2.5901E+00
   31.8471   314.00  1.4598E+00  2.6731E+00
   32.0513   312.00  1.6446E+00  2.7417E+00
   32.2581   310.00  1.8560E+00  2.7868E+00
   32.4675   308.00  2.0910E+00  2.7972E+00
   32.6797   306.00  2.3410E+00  2.7612E+00
   32.8947   304.00  2.5907E+00  2.6704E+00
   33.1126   302.00  2.8201E+00  2.5237E+00
   33.3333   300.00  3.0095E+00  2.3304E+00
   33.5570   298.00  3.1461E+00  2.1085E+00
   33.7838   296.00  3.2274E+00  1.8782E+00
   34.0136   294.00  3.2595E+00  1.6568E+00
   34.2466   292.00  3.2532E+00  1.4549E+00
   34.4828   290.00  3.2197E+00  1.2773E+00
   34.7222   288.00  3.1685E+00  1.1246E+00
   34.9650   286.00  3.1069E+00  9.9497E-01
   35.2113   284.00  3.0399E+00  8.8563E-01
   35.4610   282.00  2.9707E+00  7.9367E-01
   35.7143   280.00  2.9014E+00  7.1639E-01
   35.9712   278.00  2.8332E+00  6.5143E-01
   36.2319   276.00  2.7668E+00  5.9685E-01
   36.4964   274.00  2.7024E+00  5.5103E-01
   36.7647   272.00  2.6401E+00  5.1271E-01
   37.0370   270.00  2.5798E+00  4.8089E-01
   37.3134   268.00  2.5213E+00  4.5479E-01
   37.5940   266.00  2.4644E+00  4.3385E-01
   37.8788   264.00  2.4088E+00  4.1767E-01
   38.1679   262.00  2.3542E+00  4.0603E-01
   38.4615   260.00  2.3004E+00  3.9887E-01
   38.7597   258.00  2.2471E+00  3.9629E-01
   39.0625   256.00  2.1939E+00  3.9859E-01
   39.3701   254.00  2.1408E+00  4.0628E-01
   39.6825   252.00  2.0876E+00  4.2011E-01
   40.0000   250.00  2.0345E+00  4.4119E-01
   40.3226   248.00  1.9818E+00  4.7097E-01
   40.6504   246.00  1.9305E+00  5.1131E-01
   40.9836   244.00  1.8827E+00  5.6445E-01
   41.3223   242.00  1.8416E+00  6.3268E-01
   41.6667   240.00  1.8127E+00  7.1770E-01
   42.0168   238.00  1.8035E+00  8.1927E-01
   42.3729   236.00  1.8232E+00  9.3350E-01
   42.7350   234.00  1.8808E+00  1.0512E+00
   43.1034   232.00  1.9816E+00  1.1575E+00
   43.4783   230.00  2.1238E+00  1.2328E+00
   43.8596   228.00  2.2941E+00  1.2576E+00
   44.2478   226.00  2.4673E+00  1.2206E+00
   44.6429   224.00  2.6145E+00  1.1273E+00
   45.0450   222.00  2.7157E+00  9.9894E-01
   45.4545   220.00  2.7678E+00  8.6114E-01
   45.8716   218.00  2.7801E+00  7.3242E-01
   46.2963   216.00  2.7654E+00  6.2142E-01
   46.7290   214.00  2.7350E+00  5.2970E-01
   47.1698   212.00  2.6965E+00  4.5538E-01
   47.6190   210.00  2.6547E+00  3.9553E-01
   48.0769   208.00  2.6123E+00  3.4727E-01
   48.5437   206.00  2.5708E+00  3.0815E-01
   49.0196   204.00  2.5307E+00  2.7619E-01
   49.5050   202.00  2.4926E+00  2.4989E-01
   50.0000   200.00  2.4562E+00  2.2807E-01
   50.5051   198.00  2.4217E+00  2.0984E-01
   51.0204   196.00  2.3888E+00  1.9451E-01
   51.5464   194.00  2.3575E+00  1.8155E-01
   52.0833   192.00  2.3274E+00  1.7057E-01
   52.6316   190.00  2.2986E+00  1.6122E-01
   53.1915   188.00  2.2707E+00  1.5327E-01
   53.7634   186.00  2.2437E+00  1.4651E-01
   54.3478   184.00  2.2174E+00  1.4080E-01
   54.9451   182.00  2.1917E+00  1.3600E-01
   55.5556   180.00  2.1664E+00  1.3203E-01
   56.1798   178.00  2.1415E+00  1.2881E-01
   56.8182   176.00  2.1167E+00  1.2628E-01
   57.4713   174.00  2.0920E+00  1.2441E-01
   58.1395   172.00  2.0673E+00  1.2316E-01
   58.8235   170.00  2.0424E+00  1.2254E-01
   59.5238   168.00  2.0173E+00  1.2254E-01
   60.2410   166.00  1.9917E+00  1.2316E-01
   60.9756   164.00  1.9656E+00  1.2445E-01
   61.7284   162.00  1.9388E+00  1.2643E-01
   62.5000   160.00  1.9112E+00  1.2918E-01
   63.2911   158.00  1.8825E+00  1.3276E-01
   64.1026   156.00  1.8526E+00  1.3727E-01
   64.9351   154.00  1.8212E+00  1.4286E-01
   65.7895   152.00  1.7882E+00  1.4967E-01
   66.6667   150.00  1.7531E+00  1.5794E-01
   67.5676   148.00  1.7158E+00  1.6794E-01
   68.4932   146.00  1.6757E+00  1.8003E-01
   69.4444   144.00  1.6325E+00  1.9470E-01
   70.4225   142.00  1.5856E+00  2.1259E-01
   71.4286   140.00  1.5344E+00  2.3458E-01
   72.4638   138.00  1.4784E+00  2.6187E-01
   73.5294   136.00  1.4167E+00  2.9614E-01
   74.6269   134.00  1.3490E+00  3.3978E-01
   75.7576   132.00  1.2749E+00  3.9613E-01
   76.9231   130.00  1.1955E+00  4.6975E-01
   78.1250   128.00  1.1140E+00  5.6617E-01
   79.3651   126.00  1.0372E+00  6.9036E-01
   80.6452   124.00  9.7502E-01  8.4365E-01
   81.9672   122.00  9.3674E-01  1.0220E+00
   83.3333   120.00  9.2740E-01  1.2189E+00
   84.7458   118.00  9.4878E-01  1.4297E+00
   86.2069   116.00  1.0028E+00  1.6526E+00
   87.7193   114.00  1.0941E+00  1.8874E+00
   89.2857   112.00  1.2318E+00  2.1336E+00
   90.9091   110.00  1.4309E+00  2.3868E+00
   92.5926   108.00  1.7131E+00  2.6334E+00
   94.3396   106.00  2.1028E+00  2.8395E+00
   96.1538   104.00  2.6084E+00  2.9375E+00
   98.0392   102.00  3.1775E+00  2.8372E+00
  100.0000   100.00  3.6712E+00  2.5032E+00
  102.0408    98.00  3.9595E+00  2.0331E+00
  104.1667    96.00  4.0395E+00  1.5758E+00
  106.3830    94.00  3.9917E+00  1.2079E+00
  108.6957    92.00  3.8886E+00  9.3496E-01
  111.1111    90.00  3.7708E+00  7.3678E-01
  113.6364    88.00  3.6560E+00  5.9206E-01
  116.2791    86.00  3.5508E+00  4.8465E-01
  119.0476    84.00  3.4566E+00  4.0336E-01
  121.9512    82.00  3.3732E+00  3.4061E-01
  125.0000    80.00  3.2995E+00  2.9128E-01
  128.2051    78.00  3.2342E+00  2.5184E-01
  131.5789    76.00  3.1763E+00  2.1983E-01
  135.1351    74.00  3.1246E+00  1.9348E-01
  138.8889    72.00  3.0784E+00  1.7154E-01
  142.8571    70.00  3.0369E+00  1.5305E-01
  147.0588    68.00  2.9995E+00  1.3732E-01
  151.5152    66.00  2.9656E+00  1.2381E-01
  156.2500    64.00  2.9348E+00  1.1212E-01
  161.2903    62.00  2.9068E+00  1.0191E-01
  166.6667    60.00  2.8812E+00  9.2939E-02
  172.4138    58.00  2.8578E+00  8.5002E-02
  178.5714    56.00  2.8363E+00  7.7936E-02
  185.1852    54.00  2.8165E+00  7.1609E-02
  192.3077    52.00  2.7983E+00  6.5913E-02
  200.0000    50.00  2.7815E+00  6.0758E-02
  208.3333    48.00  2.7661E+00  5.6071E-02
  217.3913    46.00  2.7518E+00  5.1788E-02
  227.2727    44.00  2.7386E+00  4.7857E-02
  238.0952    42.00  2.7264E+00  4.4233E-02
  250.0000    40.00  2.7151E+00  4.0879E-02
  263.1579    38.00  2.7047E+00  3.7762E-02
  277.7778    36.00  2.6951E+00  3.4852E-02
  294.1176    34.00  2.6862E+00  3.2127E-02
  312.5000    32.00  2.6780E+00  2.9565E-02
  333.3333    30.00  2.6705E+00  2.7146E-02
