data provided by Paul Lucey in 2006
derived using techniques of Lucey 1998
Forsterite, Fo= 90.4000
minimum grain size (microns)= 45.0000
maximum grain size=(microns) 90.0000
column 1= wavelength, micrometers
column 2= real index
column 3= imaginary index
 
     0.300000      1.65343  0.000102588
     0.305000      1.65343 7.89393e-005
     0.310000      1.65343 7.81841e-005
     0.315000      1.65343 7.00065e-005
     0.320000      1.65343 6.02035e-005
     0.325000      1.65343 5.13138e-005
     0.330000      1.65343 4.18479e-005
     0.335000      1.65343 3.38338e-005
     0.340000      1.65343 2.72885e-005
     0.345000      1.65343 2.21509e-005
     0.350000      1.65343 1.79841e-005
     0.355000      1.65343 1.50260e-005
     0.360000      1.65343 1.25325e-005
     0.365000      1.65343 1.10437e-005
     0.370000      1.65343 9.80746e-006
     0.375000      1.65343 9.08732e-006
     0.380000      1.65343 8.68724e-006
     0.385000      1.65343 8.32816e-006
     0.390000      1.65343 7.92508e-006
     0.395000      1.65343 7.59702e-006
     0.400000      1.65343 6.98440e-006
     0.405000      1.65343 6.82837e-006
     0.410000      1.65343 6.07221e-006
     0.415000      1.65343 5.82917e-006
     0.420000      1.65343 5.66813e-006
     0.425000      1.65343 5.64613e-006
     0.430000      1.65343 5.60312e-006
     0.435000      1.65343 5.61412e-006
     0.440000      1.65343 5.45609e-006
     0.445000      1.65343 5.46209e-006
     0.450000      1.65343 5.67414e-006
     0.455000      1.65343 5.64213e-006
     0.460000      1.65343 5.35607e-006
     0.465000      1.65343 5.02601e-006
     0.470000      1.65343 4.90298e-006
     0.475000      1.65343 4.71794e-006
     0.480000      1.65343 4.26985e-006
     0.485000      1.65343 4.25385e-006
     0.490000      1.65343 4.31786e-006
     0.495000      1.65343 4.25985e-006
     0.500000      1.65343 3.80776e-006
     0.505000      1.65343 3.32767e-006
     0.510000      1.65343 3.08962e-006
     0.515000      1.65343 2.97259e-006
     0.520000      1.65343 2.87457e-006
     0.525000      1.65343 2.79456e-006
     0.530000      1.65343 2.67053e-006
     0.535000      1.65343 2.54351e-006
     0.540000      1.65343 2.36997e-006
     0.545000      1.65343 2.23745e-006
     0.550000      1.65343 2.12442e-006
     0.555000      1.65343 2.05391e-006
     0.560000      1.65343 2.02691e-006
     0.565000      1.65343 2.02240e-006
     0.570000      1.65343 2.08642e-006
     0.575000      1.65343 2.17443e-006
     0.580000      1.65343 2.26345e-006
     0.585000      1.65343 2.37798e-006
     0.590000      1.65343 2.46999e-006
     0.595000      1.65343 2.58752e-006
     0.600000      1.65343 2.70654e-006
     0.605000      1.65343 2.85157e-006
     0.610000      1.65343 2.99960e-006
     0.615000      1.65343 3.22364e-006
     0.620000      1.65343 3.47770e-006
     0.625000      1.65343 3.65873e-006
     0.630000      1.65343 3.81676e-006
     0.635000      1.65343 3.97680e-006
     0.640000      1.65343 4.03381e-006
     0.645000      1.65343 4.01280e-006
     0.650000      1.65343 4.01780e-006
     0.655000      1.65343 3.96779e-006
     0.660000      1.65343 3.94479e-006
     0.665000      1.65343 3.91978e-006
     0.670000      1.65343 4.00380e-006
     0.675000      1.65343 4.06181e-006
     0.680000      1.65343 4.23085e-006
     0.685000      1.65343 4.37388e-006
     0.690000      1.65343 4.51890e-006
     0.695000      1.65343 4.75095e-006
     0.700000      1.65343 4.98600e-006
     0.705000      1.65343 5.28206e-006
     0.710000      1.65343 5.70014e-006
     0.715000      1.65343 6.03521e-006
     0.720000      1.65343 6.46429e-006
     0.725000      1.65343 6.83937e-006
     0.730000      1.65343 7.37247e-006
     0.735000      1.65343 7.88208e-006
     0.740000      1.65343 8.40018e-006
     0.745000      1.65343 9.11232e-006
     0.750000      1.65343 9.83647e-006
     0.755000      1.65343 1.04446e-005
     0.760000      1.65343 1.12878e-005
     0.765000      1.65343 1.21119e-005
     0.770000      1.65343 1.29826e-005
     0.775000      1.65343 1.38328e-005
     0.780000      1.65343 1.46969e-005
     0.785000      1.65343 1.55751e-005
     0.790000      1.65343 1.66733e-005
     0.795000      1.65343 1.74055e-005
     0.800000      1.65343 1.82892e-005
     0.805000      1.65343 1.92574e-005
     0.810000      1.65343 2.01325e-005
     0.815000      1.65343 2.10927e-005
     0.820000      1.65343 2.20299e-005
     0.825000      1.65343 2.28686e-005
     0.830000      1.65343 2.38318e-005
     0.835000      1.65343 2.45809e-005
     0.840000      1.65343 2.52631e-005
     0.845000      1.65343 2.61072e-005
     0.850000      1.65343 2.68834e-005
     0.855000      1.65343 2.76310e-005
     0.860000      1.65343 2.84652e-005
     0.865000      1.65343 2.92303e-005
     0.870000      1.65343 2.99235e-005
     0.875000      1.65343 3.05426e-005
     0.880000      1.65343 3.12498e-005
     0.885000      1.65343 3.20889e-005
     0.890000      1.65343 3.29376e-005
     0.895000      1.65343 3.38798e-005
     0.900000      1.65343 3.47910e-005
     0.905000      1.65343 3.59272e-005
     0.910000      1.65343 3.72094e-005
     0.915000      1.65343 3.83332e-005
     0.920000      1.65343 3.99135e-005
     0.925000      1.65343 4.12948e-005
     0.930000      1.65343 4.29206e-005
     0.935000      1.65343 4.48470e-005
     0.940000      1.65343 4.69914e-005
     0.945000      1.65343 4.92203e-005
     0.950000      1.65343 5.19679e-005
     0.955000      1.65343 5.43299e-005
     0.960000      1.65343 5.69314e-005
     0.965000      1.65343 5.98325e-005
     0.970000      1.65343 6.26885e-005
     0.975000      1.65343 6.56501e-005
     0.980000      1.65343 6.85102e-005
     0.985000      1.65343 7.16378e-005
     0.990000      1.65343 7.46079e-005
     0.995000      1.65343 7.80201e-005
      1.00000      1.65343 8.09377e-005
      1.00500      1.65343 8.36187e-005
      1.01000      1.65343 8.66923e-005
      1.01500      1.65343 8.94084e-005
      1.02000      1.65343 9.23460e-005
      1.02500      1.65343 9.50300e-005
      1.03000      1.65343 9.69574e-005
      1.03500      1.65343 9.85372e-005
      1.04000      1.65343  0.000100632
      1.04500      1.65343  0.000100928
      1.05000      1.65343  0.000102294
      1.05500      1.65343  0.000103099
      1.06000      1.65343  0.000103204
      1.06500      1.65343  0.000103243
      1.07000      1.65343  0.000103022
      1.07500      1.65343  0.000102410
      1.08000      1.65343  0.000101152
      1.08500      1.65343 9.97605e-005
      1.09000      1.65343 9.88113e-005
      1.09500      1.65343 9.69634e-005
      1.10000      1.65343 9.49880e-005
      1.10500      1.65343 9.35157e-005
      1.11000      1.65343 9.11577e-005
      1.11500      1.65343 8.91783e-005
      1.12000      1.65343 8.80721e-005
      1.12500      1.65343 8.62122e-005
      1.13000      1.65343 8.46599e-005
      1.13500      1.65343 8.34157e-005
      1.14000      1.65343 8.17939e-005
      1.14500      1.65343 8.04776e-005
      1.15000      1.65343 7.85402e-005
      1.15500      1.65343 7.73395e-005
      1.16000      1.65343 7.68714e-005
      1.16500      1.65343 7.59062e-005
      1.17000      1.65343 7.48740e-005
      1.17500      1.65343 7.41448e-005
      1.18000      1.65343 7.35947e-005
      1.18500      1.65343 7.27325e-005
      1.19000      1.65343 7.19259e-005
      1.19500      1.65343 7.14858e-005
      1.20000      1.65343 7.06696e-005
      1.20500      1.65343 7.04056e-005
      1.21000      1.65343 6.96414e-005
      1.21500      1.65343 6.93694e-005
      1.22000      1.65343 6.85962e-005
      1.22500      1.65343 6.76940e-005
      1.23000      1.65343 6.72224e-005
      1.23500      1.65343 6.67463e-005
      1.24000      1.65343 6.63913e-005
      1.24500      1.65343 6.55941e-005
      1.25000      1.65343 6.47930e-005
      1.25500      1.65343 6.44879e-005
      1.26000      1.65343 6.36767e-005
      1.26500      1.65343 6.27996e-005
      1.27000      1.65343 6.21679e-005
      1.27500      1.65343 6.13428e-005
      1.28000      1.65343 6.05146e-005
      1.28500      1.65343 5.97435e-005
      1.29000      1.65343 5.87803e-005
      1.29500      1.65343 5.74355e-005
      1.30000      1.65343 5.62743e-005
      1.30500      1.65343 5.54231e-005
      1.31000      1.65343 5.45669e-005
      1.31500      1.65343 5.35807e-005
      1.32000      1.65343 5.24030e-005
      1.32500      1.65343 5.12828e-005
      1.33000      1.65343 4.99705e-005
      1.33500      1.65343 4.87172e-005
      1.34000      1.65343 4.78351e-005
      1.34500      1.65343 4.64483e-005
      1.35000      1.65343 4.52451e-005
      1.35500      1.65343 4.42248e-005
      1.36000      1.65343 4.33887e-005
      1.36500      1.65343 4.19229e-005
      1.37000      1.65343 4.05796e-005
      1.37500      1.65343 3.96054e-005
      1.38000      1.65343 3.81911e-005
      1.38500      1.65343 3.70224e-005
      1.39000      1.65343 3.60982e-005
      1.39500      1.65343 3.48590e-005
      1.40000      1.65343 3.37397e-005
      1.40500      1.65343 3.26175e-005
      1.41000      1.65343 3.16768e-005
      1.41500      1.65343 3.07316e-005
      1.42000      1.65343 2.94734e-005
      1.42500      1.65343 2.85212e-005
      1.43000      1.65343 2.73165e-005
      1.43500      1.65343 2.62322e-005
      1.44000      1.65343 2.55161e-005
      1.44500      1.65343 2.46729e-005
      1.45000      1.65343 2.35767e-005
      1.45500      1.65343 2.27255e-005
      1.46000      1.65343 2.18089e-005
      1.46500      1.65343 2.08257e-005
      1.47000      1.65343 1.99005e-005
      1.47500      1.65343 1.93454e-005
      1.48000      1.65343 1.84762e-005
      1.48500      1.65343 1.77270e-005
      1.49000      1.65343 1.71004e-005
      1.49500      1.65343 1.63443e-005
      1.50000      1.65343 1.58362e-005
      1.50500      1.65343 1.51360e-005
      1.51000      1.65343 1.44339e-005
      1.51500      1.65343 1.39158e-005
      1.52000      1.65343 1.33327e-005
      1.52500      1.65343 1.28726e-005
      1.53000      1.65343 1.20939e-005
      1.53500      1.65343 1.15648e-005
      1.54000      1.65343 1.12227e-005
      1.54500      1.65343 1.06876e-005
      1.55000      1.65343 1.02145e-005
      1.55500      1.65343 9.73845e-006
      1.56000      1.65343 9.25935e-006
      1.56500      1.65343 9.03331e-006
      1.57000      1.65343 8.67824e-006
      1.57500      1.65343 8.38518e-006
      1.58000      1.65343 8.02611e-006
      1.58500      1.65343 7.72905e-006
      1.59000      1.65343 7.36547e-006
      1.59500      1.65343 7.13043e-006
      1.60000      1.65343 6.82837e-006
      1.60500      1.65343 6.58932e-006
      1.61000      1.65343 6.34927e-006
      1.61500      1.65343 6.10722e-006
      1.62000      1.65343 5.86417e-006
      1.62500      1.65343 5.68514e-006
      1.63000      1.65343 5.50510e-006
      1.63500      1.65343 5.32406e-006
      1.64000      1.65343 5.14103e-006
      1.64500      1.65343 4.95799e-006
      1.65000      1.65343 4.77395e-006
      1.65500      1.65343 4.58792e-006
      1.66000      1.65343 4.60192e-006
      1.66500      1.65343 4.48190e-006
      1.67000      1.65343 4.36087e-006
      1.67500      1.65343 4.23885e-006
      1.68000      1.65343 4.11682e-006
      1.68500      1.65343 4.06081e-006
      1.69000      1.65343 4.00480e-006
      1.69500      1.65343 3.88078e-006
      1.70000      1.65343 3.82376e-006
      1.70500      1.65343 3.69774e-006
      1.71000      1.65343 3.63973e-006
      1.71500      1.65343 3.51270e-006
      1.72000      1.65343 3.45369e-006
      1.72500      1.65343 3.46369e-006
      1.73000      1.65343 3.33467e-006
      1.73500      1.65343 3.27466e-006
      1.74000      1.65343 3.28466e-006
      1.74500      1.65343 3.22364e-006
      1.75000      1.65343 3.16263e-006
      1.75500      1.65343 3.10162e-006
      1.76000      1.65343 3.11062e-006
      1.76500      1.65343 3.04861e-006
      1.77000      1.65343 3.05661e-006
      1.77500      1.65343 2.99460e-006
      1.78000      1.65343 2.93159e-006
      1.78500      1.65343 2.93959e-006
      1.79000      1.65343 2.87558e-006
      1.79500      1.65343 2.88358e-006
      1.80000      1.65343 2.81956e-006
      1.80500      1.65343 2.75555e-006
      1.81000      1.65343 2.69054e-006
      1.81500      1.65343 2.69754e-006
      1.82000      1.65343 2.63253e-006
      1.82500      1.65343 2.63953e-006
      1.83000      1.65343 2.57351e-006
      1.83500      1.65343 2.58052e-006
      1.84000      1.65343 2.51350e-006
      1.84500      1.65343 2.52050e-006
      1.85000      1.65343 2.52751e-006
      1.85500      1.65343 2.45999e-006
      1.86000      1.65343 2.46649e-006
      1.86500      1.65343 2.47299e-006
      1.87000      1.65343 2.47950e-006
      1.87500      1.65343 2.33597e-006
      1.88000      1.65343 2.34247e-006
      1.88500      1.65343 2.49950e-006
      1.89000      1.65343 2.50650e-006
      1.89500      1.65343 2.51250e-006
      1.90000      1.65343 2.51950e-006
      1.90500      1.65343 2.44999e-006
      1.91000      1.65343 2.45599e-006
      1.91500      1.65343 2.46249e-006
      1.92000      1.65343 2.46899e-006
      1.92500      1.65343 2.47550e-006
      1.93000      1.65343 2.55951e-006
      1.93500      1.65343 2.48850e-006
      1.94000      1.65343 2.49450e-006
      1.94500      1.65343 2.50150e-006
      1.95000      1.65343 2.50750e-006
      1.95500      1.65343 2.51450e-006
      1.96000      1.65343 2.52050e-006
      1.96500      1.65343 2.52751e-006
      1.97000      1.65343 2.53351e-006
      1.97500      1.65343 2.53951e-006
      1.98000      1.65343 2.54651e-006
      1.98500      1.65343 2.55251e-006
      1.99000      1.65343 2.47950e-006
      1.99500      1.65343 2.48550e-006
      2.00000      1.65343 2.49200e-006
      2.00500      1.65343 2.49750e-006
      2.01000      1.65343 2.50450e-006
      2.01500      1.65343 2.42999e-006
      2.02000      1.65343 2.43549e-006
      2.02500      1.65343 2.44199e-006
      2.03000      1.65343 2.44749e-006
      2.03500      1.65343 2.37247e-006
      2.04000      1.65343 2.37848e-006
      2.04500      1.65343 2.38398e-006
      2.05000      1.65343 2.38998e-006
      2.05500      1.65343 2.39548e-006
      2.06000      1.65343 2.40148e-006
      2.06500      1.65343 2.40698e-006
      2.07000      1.65343 2.33047e-006
      2.07500      1.65343 2.33597e-006
      2.08000      1.65343 2.34147e-006
      2.08500      1.65343 2.34697e-006
      2.09000      1.65343 2.35247e-006
      2.09500      1.65343 2.35797e-006
      2.10000      1.65343 2.36397e-006
      2.10500      1.65343 2.28546e-006
      2.11000      1.65343 2.29096e-006
      2.11500      1.65343 2.29646e-006
      2.12000      1.65343 2.21644e-006
      2.12500      1.65343 2.30696e-006
      2.13000      1.65343 2.22695e-006
      2.13500      1.65343 2.23245e-006
      2.14000      1.65343 2.23745e-006
      2.14500      1.65343 2.24295e-006
      2.15000      1.65343 2.24795e-006
      2.15500      1.65343 2.25345e-006
      2.16000      1.65343 2.25845e-006
      2.16500      1.65343 2.26345e-006
      2.17000      1.65343 2.26895e-006
      2.17500      1.65343 2.27445e-006
      2.18000      1.65343 2.27946e-006
      2.18500      1.65343 2.28496e-006
      2.19000      1.65343 2.37748e-006
      2.19500      1.65343 2.38298e-006
      2.20000      1.65343 2.38848e-006
      2.20500      1.65343 2.39398e-006
      2.21000      1.65343 2.39898e-006
      2.21500      1.65343 2.40448e-006
      2.22000      1.65343 2.40998e-006
      2.22500      1.65343 2.41548e-006
      2.23000      1.65343 2.42098e-006
      2.23500      1.65343 2.42649e-006
      2.24000      1.65343 2.43199e-006
      2.24500      1.65343 2.43699e-006
      2.25000      1.65343 2.44249e-006
      2.25500      1.65343 2.44799e-006
      2.26000      1.65343 2.45349e-006
      2.26500      1.65343 2.45899e-006
      2.27000      1.65343 2.46399e-006
      2.27500      1.65343 2.46999e-006
      2.28000      1.65343 2.47499e-006
      2.28500      1.65343 2.48050e-006
      2.29000      1.65343 2.48600e-006
      2.29500      1.65343 2.49150e-006
      2.30000      1.65343 2.49650e-006
      2.30500      1.65343 2.40998e-006
      2.31000      1.65343 2.41548e-006
      2.31500      1.65343 2.42048e-006
      2.32000      1.65343 2.42599e-006
      2.32500      1.65343 2.43099e-006
      2.33000      1.65343 2.52951e-006
      2.33500      1.65343 2.53451e-006
      2.34000      1.65343 2.54051e-006
      2.34500      1.65343 2.54551e-006
      2.35000      1.65343 2.55151e-006
      2.35500      1.65343 2.55651e-006
      2.36000      1.65343 2.56151e-006
      2.36500      1.65343 2.56751e-006
      2.37000      1.65343 2.57351e-006
      2.37500      1.65343 2.57852e-006
      2.38000      1.65343 2.67854e-006
      2.38500      1.65343 2.68454e-006
      2.39000      1.65343 2.59452e-006
      2.39500      1.65343 2.69554e-006
      2.40000      1.65343 2.70154e-006
      2.40500      1.65343 2.70754e-006
      2.41000      1.65343 2.80956e-006
      2.41500      1.65343 2.71854e-006
      2.42000      1.65343 2.72454e-006
      2.42500      1.65343 2.82657e-006
      2.43000      1.65343 2.83257e-006
      2.43500      1.65343 2.83857e-006
      2.44000      1.65343 2.84457e-006
      2.44500      1.65343 2.85057e-006
      2.45000      1.65343 2.85557e-006
      2.45500      1.65343 2.95959e-006
      2.46000      1.65343 2.96659e-006
      2.46500      1.65343 2.97259e-006
      2.47000      1.65343 2.97860e-006
      2.47500      1.65343 3.08362e-006
      2.48000      1.65343 3.08962e-006
      2.48500      1.65343 3.09562e-006
      2.49000      1.65343 3.10262e-006
      2.49500      1.65343 3.10862e-006
      2.50000      1.65343 3.01460e-006
      2.50500      1.65343 3.12062e-006
      2.51000      1.65343 3.12763e-006
      2.51500      1.65343 3.23365e-006
      2.52000      1.65343 3.24065e-006
      2.52500      1.65343 3.24765e-006
      2.53000      1.65343 3.25365e-006
      2.53500      1.65343 3.25965e-006
      2.54000      1.65343 3.26665e-006
      2.54500      1.65343 3.27265e-006
      2.55000      1.65343 3.38168e-006
      2.55500      1.65343 3.38768e-006
      2.56000      1.65343 3.49670e-006
      2.56500      1.65343 3.50370e-006
      2.57000      1.65343 3.61372e-006
      2.57500      1.65343 3.62072e-006
      2.58000      1.65343 3.62773e-006
      2.58500      1.65343 3.94579e-006
      2.59000      1.65343 3.95379e-006
      2.59500      1.65343 3.85677e-006
      2.60000      1.65343 3.86477e-006
