data provided by Paul Lucey in 2006
derived using techniques of Lucey 1998
Forsterite, Fo= 90.8000
minimum grain size (microns)= 0.000000
maximum grain size=(microns) 45.0000
column 1= wavelength, micrometers
column 2= real index
column 3= imaginary index
 
     0.300000      1.65266  0.000123039
     0.305000      1.65266  0.000112090
     0.310000      1.65266  0.000103317
     0.315000      1.65266 9.41298e-005
     0.320000      1.65266 8.30086e-005
     0.325000      1.65266 7.43309e-005
     0.330000      1.65266 6.60642e-005
     0.335000      1.65266 6.04096e-005
     0.340000      1.65266 5.40698e-005
     0.345000      1.65266 4.92023e-005
     0.350000      1.65266 4.46549e-005
     0.355000      1.65266 4.08737e-005
     0.360000      1.65266 3.78011e-005
     0.365000      1.65266 3.56881e-005
     0.370000      1.65266 3.35307e-005
     0.375000      1.65266 3.19909e-005
     0.380000      1.65266 3.05156e-005
     0.385000      1.65266 2.92624e-005
     0.390000      1.65266 2.80281e-005
     0.395000      1.65266 2.68154e-005
     0.400000      1.65266 2.60992e-005
     0.405000      1.65266 2.49350e-005
     0.410000      1.65266 2.40098e-005
     0.415000      1.65266 2.37077e-005
     0.420000      1.65266 2.27936e-005
     0.425000      1.65266 2.21849e-005
     0.430000      1.65266 2.16688e-005
     0.435000      1.65266 2.13048e-005
     0.440000      1.65266 2.08717e-005
     0.445000      1.65266 2.04246e-005
     0.450000      1.65266 2.00785e-005
     0.455000      1.65266 1.97795e-005
     0.460000      1.65266 1.92934e-005
     0.465000      1.65266 1.88533e-005
     0.470000      1.65266 1.82812e-005
     0.475000      1.65266 1.75140e-005
     0.480000      1.65266 1.69124e-005
     0.485000      1.65266 1.66003e-005
     0.490000      1.65266 1.64633e-005
     0.495000      1.65266 1.61342e-005
     0.500000      1.65266 1.55451e-005
     0.505000      1.65266 1.50060e-005
     0.510000      1.65266 1.45819e-005
     0.515000      1.65266 1.44679e-005
     0.520000      1.65266 1.41558e-005
     0.525000      1.65266 1.40298e-005
     0.530000      1.65266 1.37688e-005
     0.535000      1.65266 1.36327e-005
     0.540000      1.65266 1.34257e-005
     0.545000      1.65266 1.32116e-005
     0.550000      1.65266 1.31286e-005
     0.555000      1.65266 1.30426e-005
     0.560000      1.65266 1.28826e-005
     0.565000      1.65266 1.29276e-005
     0.570000      1.65266 1.29016e-005
     0.575000      1.65266 1.29436e-005
     0.580000      1.65266 1.30556e-005
     0.585000      1.65266 1.30966e-005
     0.590000      1.65266 1.31356e-005
     0.595000      1.65266 1.32466e-005
     0.600000      1.65266 1.34327e-005
     0.605000      1.65266 1.35447e-005
     0.610000      1.65266 1.36557e-005
     0.615000      1.65266 1.38438e-005
     0.620000      1.65266 1.40328e-005
     0.625000      1.65266 1.42238e-005
     0.630000      1.65266 1.43369e-005
     0.635000      1.65266 1.45299e-005
     0.640000      1.65266 1.45649e-005
     0.645000      1.65266 1.46789e-005
     0.650000      1.65266 1.47930e-005
     0.655000      1.65266 1.48250e-005
     0.660000      1.65266 1.49380e-005
     0.665000      1.65266 1.50520e-005
     0.670000      1.65266 1.52470e-005
     0.675000      1.65266 1.54451e-005
     0.680000      1.65266 1.57271e-005
     0.685000      1.65266 1.59282e-005
     0.690000      1.65266 1.60442e-005
     0.695000      1.65266 1.63323e-005
     0.700000      1.65266 1.66233e-005
     0.705000      1.65266 1.69164e-005
     0.710000      1.65266 1.72124e-005
     0.715000      1.65266 1.75990e-005
     0.720000      1.65266 1.83472e-005
     0.725000      1.65266 1.88343e-005
     0.730000      1.65266 1.90553e-005
     0.735000      1.65266 1.95514e-005
     0.740000      1.65266 1.98685e-005
     0.745000      1.65266 2.04656e-005
     0.750000      1.65266 2.08837e-005
     0.755000      1.65266 2.10227e-005
     0.760000      1.65266 2.17298e-005
     0.765000      1.65266 2.25405e-005
     0.770000      1.65266 2.29766e-005
     0.775000      1.65266 2.34167e-005
     0.780000      1.65266 2.39578e-005
     0.785000      1.65266 2.47990e-005
     0.790000      1.65266 2.53531e-005
     0.795000      1.65266 2.58122e-005
     0.800000      1.65266 2.64763e-005
     0.805000      1.65266 2.70464e-005
     0.810000      1.65266 2.75200e-005
     0.815000      1.65266 2.81001e-005
     0.820000      1.65266 2.86842e-005
     0.825000      1.65266 2.94834e-005
     0.830000      1.65266 2.99755e-005
     0.835000      1.65266 3.05776e-005
     0.840000      1.65266 3.10787e-005
     0.845000      1.65266 3.16908e-005
     0.850000      1.65266 3.23080e-005
     0.855000      1.65266 3.29306e-005
     0.860000      1.65266 3.32326e-005
     0.865000      1.65266 3.37547e-005
     0.870000      1.65266 3.47219e-005
     0.875000      1.65266 3.52540e-005
     0.880000      1.65266 3.59022e-005
     0.885000      1.65266 3.63313e-005
     0.890000      1.65266 3.72154e-005
     0.895000      1.65266 3.81081e-005
     0.900000      1.65266 3.85502e-005
     0.905000      1.65266 3.93404e-005
     0.910000      1.65266 4.04876e-005
     0.915000      1.65266 4.15278e-005
     0.920000      1.65266 4.28146e-005
     0.925000      1.65266 4.37598e-005
     0.930000      1.65266 4.51900e-005
     0.935000      1.65266 4.68764e-005
     0.940000      1.65266 4.85812e-005
     0.945000      1.65266 4.99385e-005
     0.950000      1.65266 5.19259e-005
     0.955000      1.65266 5.35627e-005
     0.960000      1.65266 5.54671e-005
     0.965000      1.65266 5.72665e-005
     0.970000      1.65266 5.94664e-005
     0.975000      1.65266 6.13078e-005
     0.980000      1.65266 6.34257e-005
     0.985000      1.65266 6.53081e-005
     0.990000      1.65266 6.74705e-005
     0.995000      1.65266 6.95254e-005
      1.00000      1.65266 7.18679e-005
      1.00500      1.65266 7.35657e-005
      1.01000      1.65266 7.56841e-005
      1.01500      1.65266 7.71454e-005
      1.02000      1.65266 7.87563e-005
      1.02500      1.65266 8.03806e-005
      1.03000      1.65266 8.14648e-005
      1.03500      1.65266 8.28356e-005
      1.04000      1.65266 8.36557e-005
      1.04500      1.65266 8.41988e-005
      1.05000      1.65266 8.47440e-005
      1.05500      1.65266 8.52891e-005
      1.06000      1.65266 8.54081e-005
      1.06500      1.65266 8.52371e-005
      1.07000      1.65266 8.49170e-005
      1.07500      1.65266 8.44459e-005
      1.08000      1.65266 8.35337e-005
      1.08500      1.65266 8.27566e-005
      1.09000      1.65266 8.16798e-005
      1.09500      1.65266 8.07376e-005
      1.10000      1.65266 7.92013e-005
      1.10500      1.65266 7.83852e-005
      1.11000      1.65266 7.68254e-005
      1.11500      1.65266 7.59892e-005
      1.12000      1.65266 7.48500e-005
      1.12500      1.65266 7.39958e-005
      1.13000      1.65266 7.28366e-005
      1.13500      1.65266 7.21139e-005
      1.14000      1.65266 7.15328e-005
      1.14500      1.65266 7.04956e-005
      1.15000      1.65266 6.98995e-005
      1.15500      1.65266 6.92964e-005
      1.16000      1.65266 6.86872e-005
      1.16500      1.65266 6.82231e-005
      1.17000      1.65266 6.77531e-005
      1.17500      1.65266 6.74305e-005
      1.18000      1.65266 6.66423e-005
      1.18500      1.65266 6.66163e-005
      1.19000      1.65266 6.64343e-005
      1.19500      1.65266 6.60922e-005
      1.20000      1.65266 6.51240e-005
      1.20500      1.65266 6.52390e-005
      1.21000      1.65266 6.50390e-005
      1.21500      1.65266 6.45219e-005
      1.22000      1.65266 6.44719e-005
      1.22500      1.65266 6.41018e-005
      1.23000      1.65266 6.37277e-005
      1.23500      1.65266 6.33497e-005
      1.24000      1.65266 6.29666e-005
      1.24500      1.65266 6.27385e-005
      1.25000      1.65266 6.20249e-005
      1.25500      1.65266 6.16268e-005
      1.26000      1.65266 6.13868e-005
      1.26500      1.65266 6.06546e-005
      1.27000      1.65266 6.02425e-005
      1.27500      1.65266 5.99895e-005
      1.28000      1.65266 5.92403e-005
      1.28500      1.65266 5.86502e-005
      1.29000      1.65266 5.82181e-005
      1.29500      1.65266 5.72855e-005
      1.30000      1.65266 5.63463e-005
      1.30500      1.65266 5.58972e-005
      1.31000      1.65266 5.51110e-005
      1.31500      1.65266 5.44849e-005
      1.32000      1.65266 5.35177e-005
      1.32500      1.65266 5.28806e-005
      1.33000      1.65266 5.18999e-005
      1.33500      1.65266 5.14188e-005
      1.34000      1.65266 5.04246e-005
      1.34500      1.65266 4.95934e-005
      1.35000      1.65266 4.87552e-005
      1.35500      1.65266 4.80821e-005
      1.36000      1.65266 4.70614e-005
      1.36500      1.65266 4.62042e-005
      1.37000      1.65266 4.56851e-005
      1.37500      1.65266 4.53341e-005
      1.38000      1.65266 4.58452e-005
      1.38500      1.65266 4.49690e-005
      1.39000      1.65266 4.49570e-005
      1.39500      1.65266 4.44189e-005
      1.40000      1.65266 4.24760e-005
      1.40500      1.65266 4.10477e-005
      1.41000      1.65266 4.03146e-005
      1.41500      1.65266 3.93994e-005
      1.42000      1.65266 3.86552e-005
      1.42500      1.65266 3.80821e-005
      1.43000      1.65266 3.73275e-005
      1.43500      1.65266 3.67453e-005
      1.44000      1.65266 3.58012e-005
      1.44500      1.65266 3.52090e-005
      1.45000      1.65266 3.46129e-005
      1.45500      1.65266 3.41918e-005
      1.46000      1.65266 3.35877e-005
      1.46500      1.65266 3.29776e-005
      1.47000      1.65266 3.23640e-005
      1.47500      1.65266 3.19279e-005
      1.48000      1.65266 3.14888e-005
      1.48500      1.65266 3.08627e-005
      1.49000      1.65266 3.04156e-005
      1.49500      1.65266 2.97825e-005
      1.50000      1.65266 2.93284e-005
      1.50500      1.65266 2.92403e-005
      1.51000      1.65266 2.87813e-005
      1.51500      1.65266 2.83182e-005
      1.52000      1.65266 2.78511e-005
      1.52500      1.65266 2.75690e-005
      1.53000      1.65266 2.72835e-005
      1.53500      1.65266 2.69964e-005
      1.54000      1.65266 2.67063e-005
      1.54500      1.65266 2.64143e-005
      1.55000      1.65266 2.61202e-005
      1.55500      1.65266 2.56331e-005
      1.56000      1.65266 2.60972e-005
      1.56500      1.65266 2.57972e-005
      1.57000      1.65266 2.56881e-005
      1.57500      1.65266 2.53841e-005
      1.58000      1.65266 2.52711e-005
      1.58500      1.65266 2.51570e-005
      1.59000      1.65266 2.50430e-005
      1.59500      1.65266 2.47309e-005
      1.60000      1.65266 2.48090e-005
      1.60500      1.65266 2.46899e-005
      1.61000      1.65266 2.45699e-005
      1.61500      1.65266 2.44489e-005
      1.62000      1.65266 2.45249e-005
      1.62500      1.65266 2.44019e-005
      1.63000      1.65266 2.42779e-005
      1.63500      1.65266 2.41528e-005
      1.64000      1.65266 2.42268e-005
      1.64500      1.65266 2.40998e-005
      1.65000      1.65266 2.41728e-005
      1.65500      1.65266 2.38418e-005
      1.66000      1.65266 2.39138e-005
      1.66500      1.65266 2.37828e-005
      1.67000      1.65266 2.38538e-005
      1.67500      1.65266 2.39258e-005
      1.68000      1.65266 2.37918e-005
      1.68500      1.65266 2.38628e-005
      1.69000      1.65266 2.39338e-005
      1.69500      1.65266 2.40048e-005
      1.70000      1.65266 2.42829e-005
      1.70500      1.65266 2.41458e-005
      1.71000      1.65266 2.42168e-005
      1.71500      1.65266 2.42879e-005
      1.72000      1.65266 2.41488e-005
      1.72500      1.65266 2.42188e-005
      1.73000      1.65266 2.44999e-005
      1.73500      1.65266 2.45709e-005
      1.74000      1.65266 2.46419e-005
      1.74500      1.65266 2.47129e-005
      1.75000      1.65266 2.47830e-005
      1.75500      1.65266 2.50680e-005
      1.76000      1.65266 2.49250e-005
      1.76500      1.65266 2.49960e-005
      1.77000      1.65266 2.52821e-005
      1.77500      1.65266 2.53541e-005
      1.78000      1.65266 2.54261e-005
      1.78500      1.65266 2.54971e-005
      1.79000      1.65266 2.57862e-005
      1.79500      1.65266 2.58592e-005
      1.80000      1.65266 2.59312e-005
      1.80500      1.65266 2.60032e-005
      1.81000      1.65266 2.62953e-005
      1.81500      1.65266 2.61472e-005
      1.82000      1.65266 2.64413e-005
      1.82500      1.65266 2.65133e-005
      1.83000      1.65266 2.68094e-005
      1.83500      1.65266 2.66593e-005
      1.84000      1.65266 2.69564e-005
      1.84500      1.65266 2.72544e-005
      1.85000      1.65266 2.73285e-005
      1.85500      1.65266 2.74025e-005
      1.86000      1.65266 2.74765e-005
      1.86500      1.65266 2.75500e-005
      1.87000      1.65266 2.83092e-005
      1.87500      1.65266 2.83852e-005
      1.88000      1.65266 2.84602e-005
      1.88500      1.65266 2.85362e-005
      1.89000      1.65266 2.90743e-005
      1.89500      1.65266 2.93834e-005
      1.90000      1.65266 2.99245e-005
      1.90500      1.65266 3.02365e-005
      1.91000      1.65266 3.05496e-005
      1.91500      1.65266 3.10987e-005
      1.92000      1.65266 3.14148e-005
      1.92500      1.65266 3.17318e-005
      1.93000      1.65266 3.13418e-005
      1.93500      1.65266 3.14238e-005
      1.94000      1.65266 3.19789e-005
      1.94500      1.65266 3.20619e-005
      1.95000      1.65266 3.19059e-005
      1.95500      1.65266 3.19879e-005
      1.96000      1.65266 3.20689e-005
      1.96500      1.65266 3.21509e-005
      1.97000      1.65266 3.24740e-005
      1.97500      1.65266 3.25565e-005
      1.98000      1.65266 3.26385e-005
      1.98500      1.65266 3.24780e-005
      1.99000      1.65266 3.25605e-005
      1.99500      1.65266 3.26415e-005
      2.00000      1.65266 3.24780e-005
      2.00500      1.65266 3.25595e-005
      2.01000      1.65266 3.28866e-005
      2.01500      1.65266 3.27225e-005
      2.02000      1.65266 3.28036e-005
      2.02500      1.65266 3.28846e-005
      2.03000      1.65266 3.29656e-005
      2.03500      1.65266 3.30466e-005
      2.04000      1.65266 3.31286e-005
      2.04500      1.65266 3.32096e-005
      2.05000      1.65266 3.32907e-005
      2.05500      1.65266 3.33717e-005
      2.06000      1.65266 3.34537e-005
      2.06500      1.65266 3.35337e-005
      2.07000      1.65266 3.38688e-005
      2.07500      1.65266 3.36967e-005
      2.08000      1.65266 3.40328e-005
      2.08500      1.65266 3.38598e-005
      2.09000      1.65266 3.39408e-005
      2.09500      1.65266 3.42779e-005
      2.10000      1.65266 3.38458e-005
      2.10500      1.65266 3.41838e-005
      2.11000      1.65266 3.45229e-005
      2.11500      1.65266 3.43459e-005
      2.12000      1.65266 3.41678e-005
      2.12500      1.65266 3.47690e-005
      2.13000      1.65266 3.51120e-005
      2.13500      1.65266 3.51930e-005
      2.14000      1.65266 3.52761e-005
      2.14500      1.65266 3.53591e-005
      2.15000      1.65266 3.57041e-005
      2.15500      1.65266 3.55241e-005
      2.16000      1.65266 3.56061e-005
      2.16500      1.65266 3.62182e-005
      2.17000      1.65266 3.60362e-005
      2.17500      1.65266 3.61192e-005
      2.18000      1.65266 3.62022e-005
      2.18500      1.65266 3.62853e-005
      2.19000      1.65266 3.61002e-005
      2.19500      1.65266 3.64513e-005
      2.20000      1.65266 3.62653e-005
      2.20500      1.65266 3.63483e-005
      2.21000      1.65266 3.67003e-005
      2.21500      1.65266 3.65133e-005
      2.22000      1.65266 3.68664e-005
      2.22500      1.65266 3.72224e-005
      2.23000      1.65266 3.75790e-005
      2.23500      1.65266 3.84852e-005
      2.24000      1.65266 3.88453e-005
      2.24500      1.65266 3.89323e-005
      2.25000      1.65266 3.92954e-005
      2.25500      1.65266 3.93824e-005
      2.26000      1.65266 4.03016e-005
      2.26500      1.65266 4.12247e-005
      2.27000      1.65266 4.15938e-005
      2.27500      1.65266 4.16848e-005
      2.28000      1.65266 4.17769e-005
      2.28500      1.65266 4.24290e-005
      2.29000      1.65266 4.25225e-005
      2.29500      1.65266 4.34617e-005
      2.30000      1.65266 4.41208e-005
      2.30500      1.65266 4.47840e-005
      2.31000      1.65266 4.60182e-005
      2.31500      1.65266 4.72575e-005
      2.32000      1.65266 4.85032e-005
      2.32500      1.65266 4.88943e-005
      2.33000      1.65266 4.84252e-005
      2.33500      1.65266 4.82411e-005
      2.34000      1.65266 4.69034e-005
      2.34500      1.65266 4.55611e-005
      2.35000      1.65266 4.45029e-005
      2.35500      1.65266 4.40188e-005
      2.36000      1.65266 4.41128e-005
      2.36500      1.65266 4.50780e-005
      2.37000      1.65266 4.54641e-005
      2.37500      1.65266 4.55601e-005
      2.38000      1.65266 4.56561e-005
      2.38500      1.65266 4.57522e-005
      2.39000      1.65266 4.61422e-005
      2.39500      1.65266 4.62382e-005
      2.40000      1.65266 4.66293e-005
      2.40500      1.65266 4.64313e-005
      2.41000      1.65266 4.71204e-005
      2.41500      1.65266 4.72184e-005
      2.42000      1.65266 4.73155e-005
      2.42500      1.65266 4.77120e-005
      2.43000      1.65266 4.87072e-005
      2.43500      1.65266 4.91073e-005
      2.44000      1.65266 4.89083e-005
      2.44500      1.65266 4.87072e-005
      2.45000      1.65266 4.85052e-005
      2.45500      1.65266 4.86042e-005
      2.46000      1.65266 4.90063e-005
      2.46500      1.65266 4.94094e-005
      2.47000      1.65266 5.04216e-005
      2.47500      1.65266 5.08287e-005
      2.48000      1.65266 5.12367e-005
      2.48500      1.65266 5.19519e-005
      2.49000      1.65266 5.17508e-005
      2.49500      1.65266 5.24690e-005
      2.50000      1.65266 5.41148e-005
      2.50500      1.65266 5.39148e-005
      2.51000      1.65266 5.43319e-005
      2.51500      1.65266 5.35097e-005
      2.52000      1.65266 5.29946e-005
      2.52500      1.65266 5.34107e-005
      2.53000      1.65266 5.28936e-005
      2.53500      1.65266 5.26855e-005
      2.54000      1.65266 5.34157e-005
      2.54500      1.65266 5.41478e-005
      2.55000      1.65266 5.36257e-005
      2.55500      1.65266 5.40458e-005
      2.56000      1.65266 5.69944e-005
      2.56500      1.65266 5.48900e-005
      2.57000      1.65266 5.53141e-005
      2.57500      1.65266 5.41508e-005
      2.58000      1.65266 5.61652e-005
      2.58500      1.65266 5.53181e-005
      2.59000      1.65266 5.57441e-005
      2.59500      1.65266 5.23340e-005
      2.60000      1.65266 5.53181e-005
