data provided by Paul Lucey in 2006
derived using techniques of Lucey 1998
Forsterite, Fo= 90.4000
minimum grain size (microns)= 45.0000
maximum grain size=(microns) 90.0000
column 1= wavelength, micrometers
column 2= real index
column 3= imaginary index
 
     0.300000      1.65343 8.82942e-005
     0.305000      1.65343 8.52040e-005
     0.310000      1.65343 7.86282e-005
     0.315000      1.65343 6.98605e-005
     0.320000      1.65343 6.03366e-005
     0.325000      1.65343 5.09717e-005
     0.330000      1.65343 4.19809e-005
     0.335000      1.65343 3.43259e-005
     0.340000      1.65343 2.77110e-005
     0.345000      1.65343 2.24785e-005
     0.350000      1.65343 1.85282e-005
     0.355000      1.65343 1.54011e-005
     0.360000      1.65343 1.31376e-005
     0.365000      1.65343 1.15778e-005
     0.370000      1.65343 1.05736e-005
     0.375000      1.65343 9.78846e-006
     0.380000      1.65343 9.44439e-006
     0.385000      1.65343 9.04031e-006
     0.390000      1.65343 8.53921e-006
     0.395000      1.65343 8.21614e-006
     0.400000      1.65343 7.91908e-006
     0.405000      1.65343 7.19444e-006
     0.410000      1.65343 6.56131e-006
     0.415000      1.65343 6.28726e-006
     0.420000      1.65343 6.18424e-006
     0.425000      1.65343 6.22224e-006
     0.430000      1.65343 6.14923e-006
     0.435000      1.65343 6.09122e-006
     0.440000      1.65343 5.95719e-006
     0.445000      1.65343 6.00520e-006
     0.450000      1.65343 6.16823e-006
     0.455000      1.65343 6.08322e-006
     0.460000      1.65343 5.72314e-006
     0.465000      1.65343 5.39508e-006
     0.470000      1.65343 5.23705e-006
     0.475000      1.65343 4.83697e-006
     0.480000      1.65343 4.46889e-006
     0.485000      1.65343 4.49490e-006
     0.490000      1.65343 4.52090e-006
     0.495000      1.65343 4.44389e-006
     0.500000      1.65343 3.89078e-006
     0.505000      1.65343 3.43169e-006
     0.510000      1.65343 3.17263e-006
     0.515000      1.65343 3.07762e-006
     0.520000      1.65343 2.93759e-006
     0.525000      1.65343 2.83757e-006
     0.530000      1.65343 2.69254e-006
     0.535000      1.65343 2.52150e-006
     0.540000      1.65343 2.34797e-006
     0.545000      1.65343 2.19344e-006
     0.550000      1.65343 2.07992e-006
     0.555000      1.65343 2.03141e-006
     0.560000      1.65343 2.02691e-006
     0.565000      1.65343 2.04541e-006
     0.570000      1.65343 2.10942e-006
     0.575000      1.65343 2.19744e-006
     0.580000      1.65343 2.31046e-006
     0.585000      1.65343 2.40148e-006
     0.590000      1.65343 2.51750e-006
     0.595000      1.65343 2.65953e-006
     0.600000      1.65343 2.80356e-006
     0.605000      1.65343 2.95059e-006
     0.610000      1.65343 3.14863e-006
     0.615000      1.65343 3.34967e-006
     0.620000      1.65343 3.60372e-006
     0.625000      1.65343 3.81176e-006
     0.630000      1.65343 3.99680e-006
     0.635000      1.65343 4.13283e-006
     0.640000      1.65343 4.19184e-006
     0.645000      1.65343 4.17083e-006
     0.650000      1.65343 4.15083e-006
     0.655000      1.65343 4.12883e-006
     0.660000      1.65343 4.10582e-006
     0.665000      1.65343 4.13783e-006
     0.670000      1.65343 4.14083e-006
     0.675000      1.65343 4.25485e-006
     0.680000      1.65343 4.34187e-006
     0.685000      1.65343 4.54191e-006
     0.690000      1.65343 4.74495e-006
     0.695000      1.65343 5.00800e-006
     0.700000      1.65343 5.27406e-006
     0.705000      1.65343 5.57311e-006
     0.710000      1.65343 5.93419e-006
     0.715000      1.65343 6.33027e-006
     0.720000      1.65343 6.73235e-006
     0.725000      1.65343 7.17143e-006
     0.730000      1.65343 7.61502e-006
     0.735000      1.65343 8.12813e-006
     0.740000      1.65343 8.74025e-006
     0.745000      1.65343 9.36337e-006
     0.750000      1.65343 1.00905e-005
     0.755000      1.65343 1.09247e-005
     0.760000      1.65343 1.17408e-005
     0.765000      1.65343 1.27666e-005
     0.770000      1.65343 1.34787e-005
     0.775000      1.65343 1.45359e-005
     0.780000      1.65343 1.53741e-005
     0.785000      1.65343 1.64653e-005
     0.790000      1.65343 1.72965e-005
     0.795000      1.65343 1.83502e-005
     0.800000      1.65343 1.92093e-005
     0.805000      1.65343 2.00085e-005
     0.810000      1.65343 2.11077e-005
     0.815000      1.65343 2.21149e-005
     0.820000      1.65343 2.28046e-005
     0.825000      1.65343 2.37628e-005
     0.830000      1.65343 2.46979e-005
     0.835000      1.65343 2.53411e-005
     0.840000      1.65343 2.61062e-005
     0.845000      1.65343 2.70744e-005
     0.850000      1.65343 2.78211e-005
     0.855000      1.65343 2.84972e-005
     0.860000      1.65343 2.93404e-005
     0.865000      1.65343 2.99925e-005
     0.870000      1.65343 3.08137e-005
     0.875000      1.65343 3.15218e-005
     0.880000      1.65343 3.25255e-005
     0.885000      1.65343 3.33767e-005
     0.890000      1.65343 3.43629e-005
     0.895000      1.65343 3.48090e-005
     0.900000      1.65343 3.59432e-005
     0.905000      1.65343 3.70484e-005
     0.910000      1.65343 3.80361e-005
     0.915000      1.65343 3.89483e-005
     0.920000      1.65343 4.02245e-005
     0.925000      1.65343 4.20589e-005
     0.930000      1.65343 4.35567e-005
     0.935000      1.65343 4.55841e-005
     0.940000      1.65343 4.78331e-005
     0.945000      1.65343 4.99785e-005
     0.950000      1.65343 5.22559e-005
     0.955000      1.65343 5.48180e-005
     0.960000      1.65343 5.73285e-005
     0.965000      1.65343 6.00845e-005
     0.970000      1.65343 6.32006e-005
     0.975000      1.65343 6.58582e-005
     0.980000      1.65343 6.90393e-005
     0.985000      1.65343 7.15838e-005
     0.990000      1.65343 7.47710e-005
     0.995000      1.65343 7.77981e-005
      1.00000      1.65343 8.07116e-005
      1.00500      1.65343 8.36187e-005
      1.01000      1.65343 8.64023e-005
      1.01500      1.65343 8.90553e-005
      1.02000      1.65343 9.25255e-005
      1.02500      1.65343 9.53931e-005
      1.03000      1.65343 9.75090e-005
      1.03500      1.65343 9.88463e-005
      1.04000      1.65343  0.000100196
      1.04500      1.65343  0.000101932
      1.05000      1.65343  0.000102800
      1.05500      1.65343  0.000103226
      1.06000      1.65343  0.000103587
      1.06500      1.65343  0.000103371
      1.07000      1.65343  0.000103150
      1.07500      1.65343  0.000102154
      1.08000      1.65343  0.000101088
      1.08500      1.65343  0.000100017
      1.09000      1.65343 9.84282e-005
      1.09500      1.65343 9.67734e-005
      1.10000      1.65343 9.51140e-005
      1.10500      1.65343 9.30736e-005
      1.11000      1.65343 9.13468e-005
      1.11500      1.65343 8.98685e-005
      1.12000      1.65343 8.77600e-005
      1.12500      1.65343 8.61492e-005
      1.13000      1.65343 8.46599e-005
      1.13500      1.65343 8.27946e-005
      1.14000      1.65343 8.15458e-005
      1.14500      1.65343 8.04156e-005
      1.15000      1.65343 7.87873e-005
      1.15500      1.65343 7.77080e-005
      1.16000      1.65343 7.70564e-005
      1.16500      1.65343 7.59062e-005
      1.17000      1.65343 7.51820e-005
      1.17500      1.65343 7.41448e-005
      1.18000      1.65343 7.35947e-005
      1.18500      1.65343 7.28556e-005
      1.19000      1.65343 7.22960e-005
      1.19500      1.65343 7.19799e-005
      1.20000      1.65343 7.14128e-005
      1.20500      1.65343 7.05916e-005
      1.21000      1.65343 7.00765e-005
      1.21500      1.65343 6.96804e-005
      1.22000      1.65343 6.90323e-005
      1.22500      1.65343 6.86282e-005
      1.23000      1.65343 6.80331e-005
      1.23500      1.65343 6.74325e-005
      1.24000      1.65343 6.67664e-005
      1.24500      1.65343 6.61572e-005
      1.25000      1.65343 6.56071e-005
      1.25500      1.65343 6.49270e-005
      1.26000      1.65343 6.43669e-005
      1.26500      1.65343 6.34897e-005
      1.27000      1.65343 6.25445e-005
      1.27500      1.65343 6.17198e-005
      1.28000      1.65343 6.08917e-005
      1.28500      1.65343 6.01205e-005
      1.29000      1.65343 5.89683e-005
      1.29500      1.65343 5.78751e-005
      1.30000      1.65343 5.70274e-005
      1.30500      1.65343 5.59882e-005
      1.31000      1.65343 5.48810e-005
      1.31500      1.65343 5.37698e-005
      1.32000      1.65343 5.27165e-005
      1.32500      1.65343 5.15958e-005
      1.33000      1.65343 5.05346e-005
      1.33500      1.65343 4.92183e-005
      1.34000      1.65343 4.79601e-005
      1.34500      1.65343 4.68864e-005
      1.35000      1.65343 4.58072e-005
      1.35500      1.65343 4.48500e-005
      1.36000      1.65343 4.38878e-005
      1.36500      1.65343 4.25475e-005
      1.37000      1.65343 4.12648e-005
      1.37500      1.65343 3.99165e-005
      1.38000      1.65343 3.87513e-005
      1.38500      1.65343 3.77060e-005
      1.39000      1.65343 3.61602e-005
      1.39500      1.65343 3.52310e-005
      1.40000      1.65343 3.40498e-005
      1.40500      1.65343 3.29896e-005
      1.41000      1.65343 3.18009e-005
      1.41500      1.65343 3.06696e-005
      1.42000      1.65343 2.95354e-005
      1.42500      1.65343 2.84592e-005
      1.43000      1.65343 2.73785e-005
      1.43500      1.65343 2.62943e-005
      1.44000      1.65343 2.52681e-005
      1.44500      1.65343 2.43009e-005
      1.45000      1.65343 2.35767e-005
      1.45500      1.65343 2.25395e-005
      1.46000      1.65343 2.15598e-005
      1.46500      1.65343 2.07016e-005
      1.47000      1.65343 1.99635e-005
      1.47500      1.65343 1.91593e-005
      1.48000      1.65343 1.82892e-005
      1.48500      1.65343 1.76030e-005
      1.49000      1.65343 1.67884e-005
      1.49500      1.65343 1.60952e-005
      1.50000      1.65343 1.53361e-005
      1.50500      1.65343 1.47610e-005
      1.51000      1.65343 1.40578e-005
      1.51500      1.65343 1.34767e-005
      1.52000      1.65343 1.28296e-005
      1.52500      1.65343 1.23690e-005
      1.53000      1.65343 1.18419e-005
      1.53500      1.65343 1.13118e-005
      1.54000      1.65343 1.09067e-005
      1.54500      1.65343 1.04346e-005
      1.55000      1.65343 9.96049e-006
      1.55500      1.65343 9.61142e-006
      1.56000      1.65343 9.13233e-006
      1.56500      1.65343 8.77826e-006
      1.57000      1.65343 8.35817e-006
      1.57500      1.65343 8.06411e-006
      1.58000      1.65343 7.83307e-006
      1.58500      1.65343 7.47149e-006
      1.59000      1.65343 7.10742e-006
      1.59500      1.65343 6.80636e-006
      1.60000      1.65343 6.56831e-006
      1.60500      1.65343 6.32927e-006
      1.61000      1.65343 6.08822e-006
      1.61500      1.65343 5.91118e-006
      1.62000      1.65343 5.66713e-006
      1.62500      1.65343 5.42208e-006
      1.63000      1.65343 5.24205e-006
      1.63500      1.65343 5.06001e-006
      1.64000      1.65343 4.94299e-006
      1.64500      1.65343 4.75895e-006
      1.65000      1.65343 4.77395e-006
      1.65500      1.65343 4.65493e-006
      1.66000      1.65343 4.13383e-006
      1.66500      1.65343 4.14683e-006
      1.67000      1.65343 4.02481e-006
      1.67500      1.65343 3.90178e-006
      1.68000      1.65343 3.77876e-006
      1.68500      1.65343 3.72174e-006
      1.69000      1.65343 3.66473e-006
      1.69500      1.65343 3.53971e-006
      1.70000      1.65343 3.48170e-006
      1.70500      1.65343 3.42368e-006
      1.71000      1.65343 3.36467e-006
      1.71500      1.65343 3.30566e-006
      1.72000      1.65343 3.24665e-006
      1.72500      1.65343 3.11762e-006
      1.73000      1.65343 3.05761e-006
      1.73500      1.65343 3.06561e-006
      1.74000      1.65343 3.00460e-006
      1.74500      1.65343 2.94359e-006
      1.75000      1.65343 2.88158e-006
      1.75500      1.65343 2.81956e-006
      1.76000      1.65343 2.82757e-006
      1.76500      1.65343 2.76555e-006
      1.77000      1.65343 2.77255e-006
      1.77500      1.65343 2.70954e-006
      1.78000      1.65343 2.71654e-006
      1.78500      1.65343 2.65353e-006
      1.79000      1.65343 2.66053e-006
      1.79500      1.65343 2.59652e-006
      1.80000      1.65343 2.60352e-006
      1.80500      1.65343 2.53851e-006
      1.81000      1.65343 2.54551e-006
      1.81500      1.65343 2.47950e-006
      1.82000      1.65343 2.48600e-006
      1.82500      1.65343 2.41998e-006
      1.83000      1.65343 2.42649e-006
      1.83500      1.65343 2.43299e-006
      1.84000      1.65343 2.36597e-006
      1.84500      1.65343 2.37247e-006
      1.85000      1.65343 2.37898e-006
      1.85500      1.65343 2.38548e-006
      1.86000      1.65343 2.31746e-006
      1.86500      1.65343 2.39798e-006
      1.87000      1.65343 2.32947e-006
      1.87500      1.65343 2.26095e-006
      1.88000      1.65343 2.34197e-006
      1.88500      1.65343 2.34847e-006
      1.89000      1.65343 2.35497e-006
      1.89500      1.65343 2.36097e-006
      1.90000      1.65343 2.36697e-006
      1.90500      1.65343 2.29696e-006
      1.91000      1.65343 2.37948e-006
      1.91500      1.65343 2.38598e-006
      1.92000      1.65343 2.39198e-006
      1.92500      1.65343 2.39798e-006
      1.93000      1.65343 2.32747e-006
      1.93500      1.65343 2.33347e-006
      1.94000      1.65343 2.33947e-006
      1.94500      1.65343 2.34547e-006
      1.95000      1.65343 2.35147e-006
      1.95500      1.65343 2.35747e-006
      1.96000      1.65343 2.36347e-006
      1.96500      1.65343 2.36947e-006
      1.97000      1.65343 2.29646e-006
      1.97500      1.65343 2.30246e-006
      1.98000      1.65343 2.30846e-006
      1.98500      1.65343 2.31396e-006
      1.99000      1.65343 2.31996e-006
      1.99500      1.65343 2.32546e-006
      2.00000      1.65343 2.33147e-006
      2.00500      1.65343 2.33747e-006
      2.01000      1.65343 2.34297e-006
      2.01500      1.65343 2.34897e-006
      2.02000      1.65343 2.27395e-006
      2.02500      1.65343 2.27946e-006
      2.03000      1.65343 2.28496e-006
      2.03500      1.65343 2.29096e-006
      2.04000      1.65343 2.29646e-006
      2.04500      1.65343 2.30196e-006
      2.05000      1.65343 2.30796e-006
      2.05500      1.65343 2.31346e-006
      2.06000      1.65343 2.31896e-006
      2.06500      1.65343 2.32446e-006
      2.07000      1.65343 2.32997e-006
      2.07500      1.65343 2.33547e-006
      2.08000      1.65343 2.34147e-006
      2.08500      1.65343 2.34697e-006
      2.09000      1.65343 2.26895e-006
      2.09500      1.65343 2.35797e-006
      2.10000      1.65343 2.36397e-006
      2.10500      1.65343 2.36947e-006
      2.11000      1.65343 2.37548e-006
      2.11500      1.65343 2.29646e-006
      2.12000      1.65343 2.30146e-006
      2.12500      1.65343 2.30696e-006
      2.13000      1.65343 2.31246e-006
      2.13500      1.65343 2.40298e-006
      2.14000      1.65343 2.40898e-006
      2.14500      1.65343 2.41448e-006
      2.15000      1.65343 2.41998e-006
      2.15500      1.65343 2.42549e-006
      2.16000      1.65343 2.43149e-006
      2.16500      1.65343 2.43699e-006
      2.17000      1.65343 2.35597e-006
      2.17500      1.65343 2.36097e-006
      2.18000      1.65343 2.36647e-006
      2.18500      1.65343 2.37197e-006
      2.19000      1.65343 2.37748e-006
      2.19500      1.65343 2.38298e-006
      2.20000      1.65343 2.38798e-006
      2.20500      1.65343 2.30546e-006
      2.21000      1.65343 2.31096e-006
      2.21500      1.65343 2.31596e-006
      2.22000      1.65343 2.32146e-006
      2.22500      1.65343 2.32647e-006
      2.23000      1.65343 2.33197e-006
      2.23500      1.65343 2.33697e-006
      2.24000      1.65343 2.34197e-006
      2.24500      1.65343 2.34747e-006
      2.25000      1.65343 2.35247e-006
      2.25500      1.65343 2.35797e-006
      2.26000      1.65343 2.36297e-006
      2.26500      1.65343 2.36847e-006
      2.27000      1.65343 2.37347e-006
      2.27500      1.65343 2.37898e-006
      2.28000      1.65343 2.38398e-006
      2.28500      1.65343 2.38898e-006
      2.29000      1.65343 2.48600e-006
      2.29500      1.65343 2.39948e-006
      2.30000      1.65343 2.40498e-006
      2.30500      1.65343 2.41048e-006
      2.31000      1.65343 2.50750e-006
      2.31500      1.65343 2.51350e-006
      2.32000      1.65343 2.51850e-006
      2.32500      1.65343 2.52450e-006
      2.33000      1.65343 2.52951e-006
      2.33500      1.65343 2.53451e-006
      2.34000      1.65343 2.54051e-006
      2.34500      1.65343 2.54651e-006
      2.35000      1.65343 2.64553e-006
      2.35500      1.65343 2.55651e-006
      2.36000      1.65343 2.46799e-006
      2.36500      1.65343 2.56751e-006
      2.37000      1.65343 2.57251e-006
      2.37500      1.65343 2.57852e-006
      2.38000      1.65343 2.58352e-006
      2.38500      1.65343 2.58952e-006
      2.39000      1.65343 2.59452e-006
      2.39500      1.65343 2.59952e-006
      2.40000      1.65343 2.60552e-006
      2.40500      1.65343 2.61052e-006
      2.41000      1.65343 2.61652e-006
      2.41500      1.65343 2.62152e-006
      2.42000      1.65343 2.62753e-006
      2.42500      1.65343 2.63253e-006
      2.43000      1.65343 2.63753e-006
      2.43500      1.65343 2.64353e-006
      2.44000      1.65343 2.64853e-006
      2.44500      1.65343 2.55651e-006
      2.45000      1.65343 2.65953e-006
      2.45500      1.65343 2.66553e-006
      2.46000      1.65343 2.67053e-006
      2.46500      1.65343 2.67554e-006
      2.47000      1.65343 2.68154e-006
      2.47500      1.65343 2.78556e-006
      2.48000      1.65343 2.79156e-006
      2.48500      1.65343 2.79756e-006
      2.49000      1.65343 2.90258e-006
      2.49500      1.65343 2.90858e-006
      2.50000      1.65343 2.91458e-006
      2.50500      1.65343 2.92058e-006
      2.51000      1.65343 3.02661e-006
      2.51500      1.65343 3.03261e-006
      2.52000      1.65343 3.03861e-006
      2.52500      1.65343 2.94359e-006
      2.53000      1.65343 2.94959e-006
      2.53500      1.65343 3.05661e-006
      2.54000      1.65343 3.06261e-006
      2.54500      1.65343 3.06861e-006
      2.55000      1.65343 3.07461e-006
      2.55500      1.65343 3.08062e-006
      2.56000      1.65343 3.08762e-006
      2.56500      1.65343 3.09362e-006
      2.57000      1.65343 3.30466e-006
      2.57500      1.65343 3.31066e-006
      2.58000      1.65343 3.31766e-006
      2.58500      1.65343 3.22064e-006
      2.59000      1.65343 3.22665e-006
      2.59500      1.65343 3.12863e-006
      2.60000      1.65343 3.34367e-006
