data provided by Paul Lucey in 2006
derived using techniques of Lucey 1998
Forsterite, Fo= 80.0000
minimum grain size (microns)= 74.0000
maximum grain size=(microns) 250.000
column 1= wavelength, micrometers
column 2= real index
column 3= imaginary index
 
     0.221100      1.67340 7.33177e-005
     0.229100      1.67340 5.86022e-005
     0.236100      1.67340 5.59372e-005
     0.242100      1.67340 6.03546e-005
     0.248100      1.67340 6.30936e-005
     0.253600      1.67340 6.59332e-005
     0.258600      1.67340 6.72895e-005
     0.263600      1.67340 6.88503e-005
     0.268600      1.67340 6.75730e-005
     0.273100      1.67340 6.75510e-005
     0.277100      1.67340 6.61892e-005
     0.281100      1.67340 6.27735e-005
     0.285100      1.67340 6.33857e-005
     0.289100      1.67340 6.18509e-005
     0.293100      1.67340 6.10557e-005
     0.297100      1.67340 5.81191e-005
     0.301100      1.67340 5.73945e-005
     0.305100      1.67340 5.39108e-005
     0.309100      1.67340 5.14238e-005
     0.313100      1.67340 4.98935e-005
     0.317100      1.67340 4.56471e-005
     0.321100      1.67340 4.15738e-005
     0.325100      1.67340 3.73505e-005
     0.329100      1.67340 3.41718e-005
     0.333100      1.67340 3.03906e-005
     0.337100      1.67340 2.75790e-005
     0.341100      1.67340 2.41318e-005
     0.345100      1.67340 2.13148e-005
     0.349100      1.67340 1.86072e-005
     0.353100      1.67340 1.66333e-005
     0.357100      1.67340 1.50520e-005
     0.360600      1.67340 1.40648e-005
     0.363600      1.67340 1.35957e-005
     0.366600      1.67340 1.31356e-005
     0.369600      1.67340 1.27526e-005
     0.372600      1.67340 1.25545e-005
     0.375600      1.67340 1.24235e-005
     0.378600      1.67340 1.24795e-005
     0.381100      1.67340 1.23450e-005
     0.383100      1.67340 1.23230e-005
     0.385100      1.67340 1.23620e-005
     0.387100      1.67340 1.22600e-005
     0.389100      1.67340 1.24200e-005
     0.391100      1.67340 1.20969e-005
     0.393100      1.67340 1.19919e-005
     0.395100      1.67340 1.20179e-005
     0.397100      1.67340 1.20609e-005
     0.399100      1.67340 1.18129e-005
     0.401100      1.67340 1.18989e-005
     0.403100      1.67340 1.19939e-005
     0.405100      1.67340 1.13788e-005
     0.407100      1.67340 1.11267e-005
     0.409100      1.67340 1.09527e-005
     0.411100      1.67340 1.11917e-005
     0.412800      1.67340 1.09287e-005
     0.415800      1.67340 1.11057e-005
     0.418800      1.67340 1.08287e-005
     0.421800      1.67340 1.09957e-005
     0.424800      1.67340 1.12097e-005
     0.427800      1.67340 1.11527e-005
     0.430800      1.67340 1.12858e-005
     0.433800      1.67340 1.14478e-005
     0.436800      1.67340 1.14518e-005
     0.439800      1.67340 1.13628e-005
     0.442800      1.67340 1.13368e-005
     0.445800      1.67340 1.16028e-005
     0.448800      1.67340 1.17478e-005
     0.451300      1.67340 1.18999e-005
     0.453300      1.67340 1.20399e-005
     0.455300      1.67340 1.19949e-005
     0.457300      1.67340 1.18919e-005
     0.459300      1.67340 1.19349e-005
     0.461300      1.67340 1.16258e-005
     0.463300      1.67340 1.15008e-005
     0.465300      1.67340 1.15398e-005
     0.467300      1.67340 1.13938e-005
     0.469300      1.67340 1.13258e-005
     0.471300      1.67340 1.16098e-005
     0.473300      1.67340 1.14808e-005
     0.475300      1.67340 1.12237e-005
     0.477300      1.67340 1.11717e-005
     0.479300      1.67340 1.10407e-005
     0.481300      1.67340 1.12748e-005
     0.483300      1.67340 1.11027e-005
     0.485300      1.67340 1.14498e-005
     0.487300      1.67340 1.16588e-005
     0.489300      1.67340 1.16558e-005
     0.491300      1.67340 1.17849e-005
     0.493300      1.67340 1.16178e-005
     0.495300      1.67340 1.18599e-005
     0.497300      1.67340 1.18869e-005
     0.499300      1.67340 1.15418e-005
     0.501300      1.67340 1.13618e-005
     0.503300      1.67340 1.13248e-005
     0.505300      1.67340 1.12247e-005
     0.507300      1.67340 1.11867e-005
     0.509300      1.67340 1.12197e-005
     0.511300      1.67340 1.11707e-005
     0.513300      1.67340 1.09117e-005
     0.515300      1.67340 1.10697e-005
     0.517300      1.67340 1.11437e-005
     0.519300      1.67340 1.13348e-005
     0.521300      1.67340 1.12728e-005
     0.523300      1.67340 1.12628e-005
     0.525300      1.67340 1.13698e-005
     0.527300      1.67340 1.13058e-005
     0.529300      1.67340 1.12948e-005
     0.531300      1.67340 1.13698e-005
     0.533300      1.67340 1.11867e-005
     0.535300      1.67340 1.14128e-005
     0.537300      1.67340 1.12598e-005
     0.539300      1.67340 1.13778e-005
     0.541300      1.67340 1.14748e-005
     0.543300      1.67340 1.13308e-005
     0.545300      1.67340 1.13178e-005
     0.547300      1.67340 1.12708e-005
     0.549300      1.67340 1.13008e-005
     0.551300      1.67340 1.14198e-005
     0.553300      1.67340 1.14388e-005
     0.555300      1.67340 1.14138e-005
     0.557300      1.67340 1.15218e-005
     0.559300      1.67340 1.16648e-005
     0.561300      1.67340 1.16498e-005
     0.563300      1.67340 1.18049e-005
     0.565300      1.67340 1.17779e-005
     0.567300      1.67340 1.21059e-005
     0.569300      1.67340 1.18619e-005
     0.571300      1.67340 1.20299e-005
     0.573300      1.67340 1.22109e-005
     0.575300      1.67340 1.25215e-005
     0.577300      1.67340 1.24595e-005
     0.579300      1.67340 1.27145e-005
     0.581300      1.67340 1.28416e-005
     0.583300      1.67340 1.29096e-005
     0.585300      1.67340 1.33017e-005
     0.587300      1.67340 1.34197e-005
     0.589300      1.67340 1.34287e-005
     0.591300      1.67340 1.33527e-005
     0.593300      1.67340 1.37888e-005
     0.595300      1.67340 1.38598e-005
     0.597300      1.67340 1.39068e-005
     0.599300      1.67340 1.41638e-005
     0.601100      1.67340 1.43939e-005
     0.602700      1.67340 1.44949e-005
     0.604300      1.67340 1.46719e-005
     0.605900      1.67340 1.47740e-005
     0.607500      1.67340 1.49140e-005
     0.609100      1.67340 1.50680e-005
     0.610700      1.67340 1.52621e-005
     0.612300      1.67340 1.53531e-005
     0.613900      1.67340 1.55751e-005
     0.615500      1.67340 1.55111e-005
     0.617100      1.67340 1.60082e-005
     0.618700      1.67340 1.62613e-005
     0.620300      1.67340 1.61572e-005
     0.621900      1.67340 1.62653e-005
     0.623500      1.67340 1.68274e-005
     0.625100      1.67340 1.65493e-005
     0.626700      1.67340 1.68464e-005
     0.628300      1.67340 1.70784e-005
     0.629900      1.67340 1.73935e-005
     0.631700      1.67340 1.72925e-005
     0.633700      1.67340 1.74155e-005
     0.635700      1.67340 1.73065e-005
     0.637700      1.67340 1.76770e-005
     0.639700      1.67340 1.78711e-005
     0.641700      1.67340 1.81921e-005
     0.643700      1.67340 1.81231e-005
     0.645700      1.67340 1.79411e-005
     0.647700      1.67340 1.81791e-005
     0.649700      1.67340 1.79121e-005
     0.651700      1.67340 1.81921e-005
     0.653700      1.67340 1.82341e-005
     0.655700      1.67340 1.82612e-005
     0.657700      1.67340 1.84032e-005
     0.659700      1.67340 1.84442e-005
     0.661700      1.67340 1.83282e-005
     0.663700      1.67340 1.87292e-005
     0.665700      1.67340 1.85252e-005
     0.667700      1.67340 1.86242e-005
     0.670200      1.67340 1.91903e-005
     0.673200      1.67340 1.92463e-005
     0.676200      1.67340 1.94654e-005
     0.679200      1.67340 1.97745e-005
     0.682200      1.67340 2.02075e-005
     0.685200      1.67340 2.03866e-005
     0.688200      1.67340 2.06436e-005
     0.691200      1.67340 2.11937e-005
     0.694200      1.67340 2.14878e-005
     0.697200      1.67340 2.17679e-005
     0.700200      1.67340 2.23020e-005
     0.702000      1.67340 2.25815e-005
     0.704000      1.67340 2.30776e-005
     0.706000      1.67340 2.33197e-005
     0.708000      1.67340 2.36617e-005
     0.710000      1.67340 2.39238e-005
     0.712000      1.67340 2.45829e-005
     0.714000      1.67340 2.49170e-005
     0.716000      1.67340 2.51870e-005
     0.718000      1.67340 2.55931e-005
     0.720000      1.67340 2.60022e-005
     0.722000      1.67340 2.62953e-005
     0.724000      1.67340 2.68484e-005
     0.726000      1.67340 2.75290e-005
     0.728000      1.67340 2.77270e-005
     0.730000      1.67340 2.81541e-005
     0.732000      1.67340 2.85322e-005
     0.734000      1.67340 2.91093e-005
     0.736000      1.67340 2.95304e-005
     0.738000      1.67340 2.99905e-005
     0.740000      1.67340 3.03826e-005
     0.742000      1.67340 3.14228e-005
     0.744000      1.67340 3.25565e-005
     0.746000      1.67340 3.25315e-005
     0.748000      1.67340 3.33797e-005
     0.750500      1.67340 3.43399e-005
     0.753500      1.67340 3.52791e-005
     0.756500      1.67340 3.63923e-005
     0.759500      1.67340 3.75260e-005
     0.762500      1.67340 3.88853e-005
     0.765500      1.67340 3.97054e-005
     0.768500      1.67340 4.19899e-005
     0.771500      1.67340 4.20889e-005
     0.774500      1.67340 4.39848e-005
     0.777500      1.67340 4.51850e-005
     0.781000      1.67340 4.66173e-005
     0.785000      1.67340 4.87663e-005
     0.789000      1.67340 5.01815e-005
     0.793000      1.67340 5.15268e-005
     0.797000      1.67340 5.39198e-005
     0.801500      1.67340 5.67814e-005
     0.806500      1.67340 5.93524e-005
     0.811500      1.67340 6.05846e-005
     0.816500      1.67340 6.36677e-005
     0.822000      1.67340 6.65833e-005
     0.828000      1.67340 7.06896e-005
     0.835000      1.67340 7.63733e-005
     0.843000      1.67340 7.86982e-005
     0.851000      1.67340 8.07426e-005
     0.859000      1.67340 8.67233e-005
     0.871000      1.67340 9.22880e-005
     0.883000      1.67340  0.000100924
     0.894000      1.67340  0.000111734
     0.904000      1.67340  0.000117595
     0.914000      1.67340  0.000125671
     0.924000      1.67340  0.000136677
     0.933000      1.67340  0.000146957
     0.941000      1.67340  0.000158939
     0.949000      1.67340  0.000172462
     0.957000      1.67340  0.000190334
     0.964000      1.67340  0.000199857
     0.970000      1.67340  0.000210447
     0.976000      1.67340  0.000224657
     0.982000      1.67340  0.000232562
     0.988000      1.67340  0.000246610
     0.994000      1.67340  0.000267049
      1.00000      1.67340  0.000274889
      1.00600      1.67340  0.000290422
      1.01200      1.67340  0.000303198
      1.01800      1.67340  0.000314589
      1.02350      1.67340  0.000316570
      1.02850      1.67340  0.000331692
      1.03350      1.67340  0.000330899
      1.03850      1.67340  0.000348840
      1.04350      1.67340  0.000349711
      1.04850      1.67340  0.000360307
      1.05350      1.67340  0.000359167
      1.05850      1.67340  0.000362557
      1.06350      1.67340  0.000363253
      1.06850      1.67340  0.000366665
      1.07350      1.67340  0.000368898
      1.07850      1.67340  0.000368891
      1.08350      1.67340  0.000370602
      1.08850      1.67340  0.000363785
      1.09350      1.67340  0.000352815
      1.09850      1.67340  0.000361439
      1.10350      1.67340  0.000351878
      1.10850      1.67340  0.000349360
      1.11350      1.67340  0.000344254
      1.11850      1.67340  0.000339266
      1.12350      1.67340  0.000335569
      1.12850      1.67340  0.000336471
      1.13350      1.67340  0.000330946
      1.13850      1.67340  0.000324716
      1.14350      1.67340  0.000322788
      1.14850      1.67340  0.000314503
      1.15350      1.67340  0.000318711
      1.15850      1.67340  0.000318594
      1.16350      1.67340  0.000322023
      1.16850      1.67340  0.000317406
      1.17350      1.67340  0.000316744
      1.17850      1.67340  0.000317690
      1.18350      1.67340  0.000314490
      1.18850      1.67340  0.000311860
      1.19350      1.67340  0.000310818
      1.19850      1.67340  0.000317806
      1.20350      1.67340  0.000312506
      1.20850      1.67340  0.000313149
      1.21350      1.67340  0.000312872
      1.21850      1.67340  0.000315081
      1.22350      1.67340  0.000311921
      1.22850      1.67340  0.000311378
      1.23350      1.67340  0.000310835
      1.23850      1.67340  0.000317458
      1.24350      1.67340  0.000305429
      1.24850      1.67340  0.000309195
      1.25350      1.67340  0.000311719
      1.25850      1.67340  0.000307844
      1.26350      1.67340  0.000304784
      1.26850      1.67340  0.000304490
      1.27350      1.67340  0.000299635
      1.27850      1.67340  0.000303770
      1.28350      1.67340  0.000300396
      1.28850      1.67340  0.000296108
      1.29350      1.67340  0.000294504
      1.29850      1.67340  0.000292084
      1.30350      1.67340  0.000283822
      1.30850      1.67340  0.000286054
      1.31350      1.67340  0.000281462
      1.31850      1.67340  0.000289398
      1.32350      1.67340  0.000278342
      1.32850      1.67340  0.000278839
      1.33350      1.67340  0.000266683
      1.33850      1.67340  0.000263702
      1.34350      1.67340  0.000261581
      1.34850      1.67340  0.000258258
      1.35350      1.67340  0.000250923
      1.35850      1.67340  0.000248816
      1.36350      1.67340  0.000246632
      1.36850      1.67340  0.000238820
      1.37350      1.67340  0.000240440
      1.37850      1.67340  0.000236483
      1.38350      1.67340  0.000236512
      1.38850      1.67340  0.000226560
      1.39350      1.67340  0.000222750
      1.39850      1.67340  0.000219426
      1.40350      1.67340  0.000212164
      1.40850      1.67340  0.000207617
      1.41350      1.67340  0.000199795
      1.41850      1.67340  0.000196946
      1.42350      1.67340  0.000193000
      1.42850      1.67340  0.000187428
      1.43350      1.67340  0.000185963
      1.43850      1.67340  0.000179999
      1.44350      1.67340  0.000183988
      1.44850      1.67340  0.000183831
      1.45350      1.67340  0.000174919
      1.45850      1.67340  0.000167700
      1.46350      1.67340  0.000163251
      1.46850      1.67340  0.000160110
      1.47350      1.67340  0.000156379
      1.47850      1.67340  0.000156529
      1.48350      1.67340  0.000152854
      1.48850      1.67340  0.000150708
      1.49350      1.67340  0.000148093
      1.49850      1.67340  0.000145506
      1.50350      1.67340  0.000142535
      1.50850      1.67340  0.000145214
      1.51350      1.67340  0.000142889
      1.51850      1.67340  0.000141701
      1.52350      1.67340  0.000139056
      1.52850      1.67340  0.000134722
      1.53400      1.67340  0.000132706
      1.54000      1.67340  0.000130244
      1.54600      1.67340  0.000127528
      1.55200      1.67340  0.000127581
      1.55800      1.67340  0.000124290
      1.56400      1.67340  0.000124170
      1.57050      1.67340  0.000123327
      1.57750      1.67340  0.000123659
      1.58450      1.67340  0.000124317
      1.59150      1.67340  0.000119882
      1.59850      1.67340  0.000120572
      1.60550      1.67340  0.000118313
      1.61250      1.67340  0.000118828
      1.61950      1.67340  0.000117635
      1.62650      1.67340  0.000118090
      1.63350      1.67340  0.000117102
      1.64050      1.67340  0.000118354
      1.64750      1.67340  0.000121081
      1.65450      1.67340  0.000118931
      1.66150      1.67340  0.000119326
      1.66850      1.67340  0.000119828
      1.67600      1.67340  0.000121354
      1.68400      1.67340  0.000123096
      1.69200      1.67340  0.000123402
      1.70000      1.67340  0.000121317
      1.70800      1.67340  0.000125470
      1.71600      1.67340  0.000124025
      1.72400      1.67340  0.000125792
      1.73200      1.67340  0.000128497
      1.74000      1.67340  0.000129903
      1.74800      1.67340  0.000128871
      1.75600      1.67340  0.000129170
      1.76400      1.67340  0.000131813
      1.77200      1.67340  0.000131112
      1.78000      1.67340  0.000132712
      1.78800      1.67340  0.000134925
      1.79600      1.67340  0.000135227
      1.80500      1.67340  0.000138465
      1.81500      1.67340  0.000140408
      1.82500      1.67340  0.000143060
      1.83500      1.67340  0.000143655
      1.84500      1.67340  0.000145903
      1.85500      1.67340  0.000147467
      1.86500      1.67340  0.000148716
      1.87500      1.67340  0.000149513
      1.88500      1.67340  0.000152091
      1.89500      1.67340  0.000152499
      1.90500      1.67340  0.000156531
      1.91500      1.67340  0.000159747
      1.92500      1.67340  0.000164555
      1.93500      1.67340  0.000163090
      1.94500      1.67340  0.000167760
      1.95500      1.67340  0.000170498
      1.96500      1.67340  0.000168261
      1.97500      1.67340  0.000168468
      1.98500      1.67340  0.000168960
      1.99500      1.67340  0.000173175
      2.00500      1.67340  0.000175452
      2.01500      1.67340  0.000177001
      2.02500      1.67340  0.000174884
      2.03500      1.67340  0.000175972
      2.04500      1.67340  0.000177137
      2.05500      1.67340  0.000178990
      2.06500      1.67340  0.000179937
      2.07500      1.67340  0.000182581
      2.08500      1.67340  0.000184083
      2.09500      1.67340  0.000183018
      2.10500      1.67340  0.000186714
      2.11500      1.67340  0.000186258
      2.12500      1.67340  0.000186111
      2.13500      1.67340  0.000186907
      2.14500      1.67340  0.000186353
      2.15500      1.67340  0.000185873
      2.16500      1.67340  0.000193827
      2.17500      1.67340  0.000195955
      2.18500      1.67340  0.000199099
      2.19500      1.67340  0.000201777
      2.20500      1.67340  0.000203630
      2.21500      1.67340  0.000205237
      2.22500      1.67340  0.000202745
      2.23500      1.67340  0.000218995
      2.24500      1.67340  0.000219523
      2.25500      1.67340  0.000220321
      2.26500      1.67340  0.000227554
      2.27500      1.67340  0.000227068
      2.28500      1.67340  0.000232581
      2.29500      1.67340  0.000234361
      2.30500      1.67340  0.000237787
      2.31500      1.67340  0.000246778
      2.32500      1.67340  0.000259246
      2.33500      1.67340  0.000255198
      2.34500      1.67340  0.000250481
      2.35500      1.67340  0.000252463
      2.36500      1.67340  0.000238378
      2.37500      1.67340  0.000247005
      2.38600      1.67340  0.000249056
      2.40000      1.67340  0.000253987
