from Pollack et al., ApJ, 421, 615-639, 1994
optical constants of OLIVINE
      wavelength       real         imaginary
      (microns)        index          index
      1.0332E-01     1.6471E+00     9.4811E-01
      1.1290E-01     1.7682E+00     7.8492E-01
      1.2433E-01     1.8895E+00     6.8543E-01
      1.3802E-01     1.8835E+00     6.0220E-01
      1.4661E-01     2.0772E+00     7.4488E-01
      1.5176E-01     2.2554E+00     5.3474E-01
      1.5634E-01     2.2206E+00     3.3655E-01
      1.7781E-01     2.0042E+00     1.3202E-01
      1.9179E-01     1.9342E+00     7.3675E-02
      2.0680E-01     1.8671E+00     4.1533E-02
      2.2741E-01     1.8186E+00     2.4476E-02
      2.5188E-01     1.7860E+00     2.5175E-02
      3.1335E-01     1.7322E+00     1.7887E-02
      4.0000E-01     1.6899E+00     2.6600E-04
      4.5000E-01     1.6655E+00     2.1900E-04
      5.0230E-01     1.6400E+00     1.6522E-04
      5.2799E-01     1.6399E+00     1.4370E-04
      5.6254E-01     1.6397E+00     1.2605E-04
      6.0504E-01     1.6395E+00     1.2396E-04
      6.4072E-01     1.6393E+00     1.3056E-04
      6.7452E-01     1.6391E+00     1.3197E-04
      7.1449E-01     1.6389E+00     1.5392E-04
      7.4469E-01     1.6388E+00     1.8306E-04
      7.7415E-01     1.6386E+00     2.3104E-04
      7.9806E-01     1.6385E+00     2.7449E-04
      8.2165E-01     1.6384E+00     3.1751E-04
      8.4924E-01     1.6383E+00     3.7481E-04
      8.7822E-01     1.6381E+00     4.2885E-04
      9.0632E-01     1.6380E+00     4.9308E-04
      9.3426E-01     1.6378E+00     5.7918E-04
      9.5357E-01     1.6377E+00     6.5058E-04
      9.6831E-01     1.6377E+00     7.3390E-04
      9.8182E-01     1.6376E+00     8.1290E-04
      9.9305E-01     1.6375E+00     8.8953E-04
      1.0056E+00     1.6375E+00     9.6788E-04
      1.0166E+00     1.6374E+00     1.0410E-03
      1.0252E+00     1.6374E+00     1.0863E-03
      1.0328E+00     1.6373E+00     1.1146E-03
      1.0550E+00     1.6372E+00     1.1479E-03
      1.0714E+00     1.6371E+00     1.1275E-03
      1.0787E+00     1.6371E+00     1.0976E-03
      1.0899E+00     1.6371E+00     1.0694E-03
      1.0994E+00     1.6370E+00     1.0302E-03
      1.1141E+00     1.6369E+00     9.7900E-04
      1.1316E+00     1.6368E+00     9.3737E-04
      1.1494E+00     1.6368E+00     8.9811E-04
      1.1849E+00     1.6366E+00     8.3715E-04
      1.2189E+00     1.6364E+00     7.8831E-04
      1.2472E+00     1.6363E+00     7.5054E-04
      1.2722E+00     1.6361E+00     7.1494E-04
      1.3013E+00     1.6360E+00     6.6114E-04
      1.3297E+00     1.6359E+00     6.0734E-04
      1.3591E+00     1.6357E+00     5.5311E-04
      1.3863E+00     1.6356E+00     4.8892E-04
      1.4158E+00     1.6354E+00     4.1519E-04
      1.4509E+00     1.6352E+00     3.4687E-04
      1.4808E+00     1.6351E+00     2.9869E-04
      1.5185E+00     1.6349E+00     2.4400E-04
      1.5569E+00     1.6347E+00     1.9991E-04
      1.5991E+00     1.6345E+00     1.6578E-04
      1.6414E+00     1.6343E+00     1.4420E-04
      1.6849E+00     1.6341E+00     1.2803E-04
      1.7312E+00     1.6338E+00     1.1749E-04
      1.7901E+00     1.6335E+00     1.0863E-04
      1.8499E+00     1.6333E+00     1.0606E-04
      1.9211E+00     1.6329E+00     9.7165E-05
      2.0040E+00     1.6325E+00     9.5813E-05
      2.0904E+00     1.6320E+00     8.9469E-05
      2.1574E+00     1.6317E+00     9.0984E-05
      2.2153E+00     1.6314E+00     9.7076E-05
      2.2847E+00     1.6311E+00     9.1003E-05
      2.3217E+00     1.6309E+00     8.4603E-05
      2.3771E+00     1.6306E+00     8.3773E-05
      2.4422E+00     1.6303E+00     7.7715E-05
      2.4994E+00     1.6300E+00     7.1899E-05
      3.0000E+00     1.6200E+00     1.4100E-04
      4.0000E+00     1.5940E+00     4.3400E-04
      5.0000E+00     1.5570E+00     1.1100E-03
      6.0000E+00     1.4900E+00     2.6100E-03
      7.0000E+00     1.3777E+00     5.9500E-03
      7.6923E+00     1.3000E+00     1.1000E-02
      8.0000E+00     1.2800E+00     2.0000E-02
      8.3333E+00     1.2600E+00     7.0000E-02
      8.6957E+00     1.2400E+00     1.2000E-01
      9.0909E+00     1.2200E+00     3.0000E-01
      9.5238E+00     1.3100E+00     5.8000E-01
      1.0000E+01     1.4400E+00     7.6000E-01
      1.0526E+01     1.6500E+00     7.6000E-01
      1.1111E+01     1.7700E+00     6.1000E-01
      1.1765E+01     1.8000E+00     4.3000E-01
      1.2500E+01     1.7500E+00     2.0000E-01
      1.3333E+01     1.6700E+00     5.0000E-02
      1.4286E+01     1.6200E+00     1.2000E-01
      1.5385E+01     1.5600E+00     2.1000E-01
      1.6667E+01     1.5600E+00     3.3000E-01
      1.8182E+01     1.6200E+00     5.4000E-01
      2.0000E+01     1.7500E+00     6.9000E-01
      2.2222E+01     2.1000E+00     8.1000E-01
      2.5000E+01     2.3000E+00     7.6000E-01
      2.8571E+01     2.3700E+00     5.4000E-01
      3.3333E+01     2.3600E+00     3.4000E-01
      4.0064E+01     2.3393E+00     2.4403E-01
      4.4522E+01     2.3332E+00     2.2534E-01
      4.9942E+01     2.3198E+00     2.1684E-01
      5.7109E+01     2.3023E+00     2.2054E-01
      6.6487E+01     2.2784E+00     2.1464E-01
      7.9521E+01     2.2488E+00     1.9720E-01
      1.0081E+02     2.1951E+00     1.7238E-01
      1.3282E+02     2.1713E+00     1.3917E-01
      1.9841E+02     2.1436E+00     9.5962E-02
      3.0000E+02     2.1100E+00     6.3500E-02
      4.0000E+02     2.0900E+00     4.7600E-02
      5.0000E+02     2.0800E+00     3.8100E-02
      6.0000E+02     2.0800E+00     3.1700E-02
      8.5700E+03     2.0800E+00     2.4700E-02
      6.6700E+05     2.0800E+00     1.2400E-02
