Chlorite SMR-13.c 0.2-3um estimated optical constants

R. N. Clark, 3/2002
deleted points = -1.23e34

       wavelength        n         k (cm^-1)

        .205100       1.598888      -1.23e34 
        .213100       1.598712      -1.23e34 
        .221100       1.598536      -1.23e34 
        .229100       1.598361      -1.23e34 
        .236100       1.598207      -1.23e34 
        .242100       1.598075      -1.23e34 
        .248100       1.597943      -1.23e34 
        .253600       1.597823      -1.23e34 
        .258600       1.597713      -1.23e34 
        .263600       1.597603    2385.767578
        .268600       1.597493    2185.696045
        .273100       1.597394    1998.962891
        .277100       1.597306    1887.303955
        .281100       1.597219    1676.943115
        .285100       1.597131    1504.691406
        .289100       1.597043    1305.000977
        .293100       1.596955    1200.773438
        .297100       1.596867    1069.869629
        .301100       1.596779     979.646973
        .305100       1.596691     909.050415
        .309100       1.596604     854.935791
        .313100       1.596516     831.213074
        .317100       1.596428     805.489685
        .321100       1.596340     773.287659
        .325100       1.596252     741.466858
        .329100       1.596164     747.468994
        .333100       1.596076     738.513428
        .337100       1.595989     723.841431
        .341100       1.595901     711.837158
        .345100       1.595813     709.931763
        .349100       1.595725     690.877319
        .353100       1.595637     724.031982
        .357100       1.595549     684.398804
        .360600       1.595472     658.008484
        .363600       1.595407     662.676758
        .366600       1.595341     653.292480
        .369600       1.595275     650.767761
        .372600       1.595209     635.524231
        .375600       1.595143     618.375305
        .378600       1.595077     607.419067
        .381100       1.595022     593.985657
        .383100       1.594978     590.460571
        .385100       1.594934     581.505005
        .387100       1.594890     586.459106
        .389100       1.594846     567.785889
        .391100       1.594803     560.164063
        .393100       1.594759     552.351807
        .395100       1.594715     553.304443
        .397100       1.594671     533.583191
        .399100       1.594627     541.109619
        .401100       1.594583     538.918396
        .403100       1.594539     534.821655
        .405100       1.594495     527.199951
        .407100       1.594451     523.198486
        .409100       1.594407     515.005127
        .411100       1.594363     510.432068
        .412800       1.594326     492.759064
        .415800       1.594260     488.519470
        .418800       1.594194     469.274536
        .421800       1.594128     454.888428
        .424800       1.594062     440.788147
        .427800       1.593996     427.259521
        .430800       1.593930     414.207275
        .433800       1.593865     408.205139
        .436800       1.593799     400.964478
        .439800       1.593733     383.910767
        .442800       1.593667     374.859924
        .445800       1.593601     367.952667
        .448800       1.593535     358.901825
        .451300       1.593480     350.803711
        .453300       1.593436     352.947327
        .455300       1.593392     354.900421
        .457300       1.593349     350.351196
        .459300       1.593305     341.371796
        .461300       1.593261     334.655090
        .463300       1.593217     327.938416
        .465300       1.593173     324.818237
        .467300       1.593129     315.267242
        .469300       1.593085     314.314484
        .471300       1.593041     309.693787
        .473300       1.592997     301.452789
        .475300       1.592953     296.927368
        .477300       1.592909     283.970337
        .479300       1.592865     283.827423
        .481300       1.592821     273.919159
        .483300       1.592777     275.110046
        .485300       1.592734     267.011902
        .487300       1.592690     264.915955
        .489300       1.592646     264.368103
        .491300       1.592602     261.486145
        .493300       1.592558     261.105042
        .495300       1.592514     257.961060
        .497300       1.592470     254.650375
        .499300       1.592426     252.363846
        .501300       1.592382     244.503891
        .503300       1.592338     244.241913
        .505300       1.592294     239.930832
        .507300       1.592250     232.094727
        .509300       1.592206     232.047089
        .511300       1.592162     230.022537
        .513300       1.592118     227.212021
        .515300       1.592075     226.211655
        .517300       1.592031     225.806763
        .519300       1.591987     220.257156
        .521300       1.591943     221.995880
        .523300       1.591899     221.781509
        .525300       1.591855     221.114609
        .527300       1.591811     217.422821
        .529300       1.591767     219.899902
        .531300       1.591723     217.136993
        .533300       1.591679     219.673615
        .535300       1.591635     214.135925
        .537300       1.591591     213.421387
        .539300       1.591547     214.183563
        .541300       1.591504     214.088287
        .543300       1.591460     209.253250
        .545300       1.591416     210.086884
        .547300       1.591372     207.657440
        .549300       1.591328     206.609436
        .551300       1.591284     205.061264
        .553300       1.591240     203.608368
        .555300       1.591196     207.454987
        .557300       1.591152     203.203476
        .559300       1.591108     204.203812
        .561300       1.591064     202.584183
        .563300       1.591020     205.037445
        .565300       1.590976     203.298737
        .567300       1.590932     201.988739
        .569300       1.590889     204.680191
        .571300       1.590845     197.844421
        .573300       1.590801     200.154770
        .575300       1.590757     204.060913
        .577300       1.590713     201.321838
        .579300       1.590669     204.406281
        .581300       1.590625     205.490005
        .583300       1.590581     206.133087
        .585300       1.590537     206.037811
        .587300       1.590493     210.015427
        .589300       1.590449     209.277069
        .591300       1.590405     205.585266
        .593300       1.590361     209.539047
        .595300       1.590317     210.086884
        .597300       1.590273     212.814026
        .599300       1.590230     211.325409
        .601100       1.590190     214.802826
        .602700       1.590155     213.826309
        .604300       1.590120     218.494629
        .605900       1.590085     221.924423
        .607500       1.590049     217.065536
        .609100       1.590014     222.853333
        .610700       1.589979     222.114975
        .612300       1.589944     222.924789
        .613900       1.589909     223.972763
        .615500       1.589874     224.711121
        .617100       1.589839     228.569641
        .618700       1.589803     229.522369
        .620300       1.589768     235.167252
        .621900       1.589733     230.570374
        .623500       1.589698     235.762695
        .625100       1.589663     238.906677
        .626700       1.589628     241.026474
        .628300       1.589593     238.811401
        .629900       1.589557     241.097931
        .631700       1.589518     246.814240
        .633700       1.589474     249.958221
        .635700       1.589430     251.863678
        .637700       1.589386     257.270386
        .639700       1.589342     257.151276
        .641700       1.589298     262.057800
        .643700       1.589254     262.319763
        .645700       1.589210     263.891785
        .647700       1.589166     266.511780
        .649700       1.589123     269.727203
        .651700       1.589079     269.179382
        .653700       1.589035     272.513916
        .655700       1.588991     272.847351
        .657700       1.588947     278.015839
        .659700       1.588903     276.324768
        .661700       1.588859     280.826355
        .663700       1.588815     280.207123
        .665700       1.588771     285.542328
        .667700       1.588727     289.424683
        .670200       1.588672     288.781586
        .673200       1.588606     295.593567
        .676200       1.588540     296.593903
        .679200       1.588475     300.118988
        .682200       1.588409     303.215332
        .685200       1.588343     301.119324
        .688200       1.588277     304.048950
        .691200       1.588211     306.192566
        .694200       1.588145     311.932709
        .697200       1.588079     311.789795
        .700200       1.588013     311.456329
        .702000       1.587974     310.455994
        .704000       1.587930     311.265778
        .706000       1.587886     306.192566
        .708000       1.587842     307.264374
        .710000       1.587798     311.456329
        .712000       1.587754     310.408356
        .714000       1.587710     308.431458
        .716000       1.587666     311.646881
        .718000       1.587622     308.979279
        .720000       1.587579     304.072754
        .722000       1.587535     305.811462
        .724000       1.587491     302.453125
        .726000       1.587447     301.833893
        .728000       1.587403     296.570068
        .730000       1.587359     296.546265
        .732000       1.587315     289.543793
        .734000       1.587271     288.686310
        .736000       1.587227     293.831024
        .738000       1.587183     287.852722
        .740000       1.587139     282.565063
        .742000       1.587095     284.661072
        .744000       1.587051     284.470520
        .746000       1.587007     282.588898
        .748000       1.586964     283.041443
        .750500       1.586908     280.064209
        .753500       1.586843     268.798279
        .756500       1.586777     268.107574
        .759500       1.586711     267.154816
        .762500       1.586645     260.342896
        .765500       1.586579     255.174362
        .768500       1.586513     252.864014
        .771500       1.586447     248.981689
        .774500       1.586381     239.240112
        .777500       1.586316     243.765533
        .781000       1.586239     232.713989
        .785000       1.586151     233.023621
        .789000       1.586063     230.320282
        .793000       1.585975     225.711487
        .797000       1.585887     219.375885
        .801500       1.585788     221.114609
        .806500       1.585679     218.423187
        .811500       1.585569     219.637894
        .816500       1.585459     219.042450
        .822000       1.585338     214.826645
        .828000       1.585206     220.400070
        .835000       1.585053     226.568939
        .843000       1.584877      -1.23e34 
        .851000       1.584701     240.311935
        .859000       1.584525     241.312302
        .871000       1.584262     236.215225
        .883000       1.583998     258.842346
        .894000       1.583757     268.393372
        .904000       1.583537     258.508911
        .914000       1.583317     251.625488
        .924000       1.583098     239.287750
        .933000       1.582900     244.670624
        .941000       1.582724     236.953583
        .949000       1.582549     238.120682
        .957000       1.582373     224.949310
        .964000       1.582219     221.936340
        .970000       1.582087     212.111404
        .976000       1.581956     216.243835
        .982000       1.581824     214.421753
        .988000       1.581692     211.944672
        .994000       1.581560     209.896332
       1.000000       1.581428     210.753784
       1.006000       1.581297     203.155838
       1.012000       1.581165     206.133087
       1.018000       1.581033     204.025177
       1.023500       1.580912     218.161179
       1.028500       1.580802     204.465820
       1.033500       1.580693     206.395065
       1.038500       1.580583     201.762482
       1.043500       1.580473     207.943237
       1.048500       1.580363     201.155106
       1.053500       1.580253     205.013626
       1.058500       1.580144     207.204880
       1.063500       1.580034     197.820602
       1.068500       1.579924     206.847626
       1.073500       1.579814     204.370544
       1.078500       1.579704     201.417114
       1.083500       1.579594     204.227631
       1.088500       1.579485     203.155838
       1.093500       1.579375     202.060196
       1.098500       1.579265     202.107834
       1.103500       1.579155     200.869308
       1.108500       1.579045     196.534409
       1.113500       1.578936     195.962784
       1.118500       1.578826     195.129150
       1.123500       1.578716     196.486771
       1.128500       1.578606     188.364838
       1.133500       1.578496     189.031738
       1.138500       1.578386     192.104263
       1.143500       1.578277     176.586823
       1.148500       1.578167     181.957794
       1.153500       1.578057     180.647797
       1.158500       1.577947     173.645294
       1.163500       1.577837     170.572769
       1.168500       1.577727     169.858231
       1.173500       1.577618     166.440369
       1.178500       1.577508     163.308289
       1.183500       1.577398     161.307587
       1.188500       1.577288     154.888611
       1.193500       1.577178     154.638519
       1.198500       1.577069     151.387390
       1.203500       1.576959     151.327835
       1.208500       1.576849     144.408691
       1.213500       1.576739     140.383453
       1.218500       1.576629     139.668915
       1.223500       1.576519     134.357483
       1.228500       1.576410     130.165497
       1.233500       1.576300     128.998444
       1.238500       1.576190     125.842545
       1.243500       1.576080     122.829567
       1.248500       1.575970     118.911499
       1.253500       1.575861     119.042503
       1.258500       1.575751     118.679276
       1.263500       1.575641     114.243179
       1.268500       1.575531     109.634392
       1.273500       1.575421     107.002502
       1.278500       1.575311     104.215790
       1.283500       1.575202      99.548340
       1.288500       1.575092     100.309631
       1.293500       1.574982      96.301300
       1.298500       1.574872      95.483444
       1.303500       1.574762      95.166061
       1.308500       1.574653      92.468338
       1.313500       1.574543      89.294540
       1.318500       1.574433      86.401505
       1.323500       1.574323      84.973297
       1.328500       1.574213      81.659119
       1.333500       1.574103      81.537048
       1.338500       1.573994      81.048767
       1.343500       1.573884      77.759003
       1.348500       1.573774      73.456070
       1.353500       1.573664      73.456070
       1.358500       1.573554      68.957825
       1.363500       1.573444      69.525452
       1.368500       1.573335      69.049377
       1.373500       1.573225      66.302826
       1.378500       1.573115      74.402115
       1.383500       1.573005      92.565994
       1.388500       1.572895      99.475098
       1.393500       1.572785      81.689636
       1.398500       1.572676      74.908707
       1.403500       1.572566      69.421692
       1.408500       1.572456      71.631149
       1.413500       1.572346      66.455414
       1.418500       1.572237      65.838959
       1.423500       1.572127      65.246933
       1.428500       1.572017      61.688614
       1.433500       1.571907      64.557236
       1.438500       1.571797      62.659065
       1.443500       1.571687      59.070229
       1.448500       1.571578      56.439644
       1.453500       1.571468      58.850510
       1.458500       1.571358      55.963570
       1.463500       1.571248      52.472397
       1.468500       1.571138      52.136703
       1.473500       1.571028      49.304710
       1.478500       1.570919      48.718781
       1.483500       1.570809      49.298607
       1.488500       1.570699      46.204155
       1.493500       1.570589      46.265190
       1.498500       1.570479      42.981529
       1.503500       1.570369      43.274498
       1.508500       1.570260      43.433182
       1.513500       1.570150      43.070030
       1.518500       1.570040      41.284767
       1.523500       1.569930      39.319458
       1.528500       1.569820      38.953247
       1.534000       1.569700      39.349976
       1.540000       1.569568      37.879044
       1.546000       1.569436      36.911644
       1.552000       1.569304      35.816071
       1.558000       1.569173      34.937172
       1.564000       1.569041      33.313652
       1.570500       1.568898      32.245552
       1.577500       1.568744      30.570152
       1.584500       1.568590      31.116409
       1.591500       1.568437      28.983253
       1.598500       1.568283      27.451286
       1.605500       1.568129      26.810421
       1.612500       1.567975      25.806404
       1.619500       1.567822      25.275406
       1.626500       1.567668      25.308971
       1.633500       1.567514      23.708344
       1.640500       1.567360      22.327438
       1.647500       1.567207      22.077194
       1.654500       1.567053      20.633728
       1.661500       1.566899      20.072212
       1.668500       1.566745      19.803658
       1.676000       1.566581      18.752338
       1.684000       1.566405      18.637897
       1.692000       1.566229      17.859707
       1.700000       1.566054      17.469086
       1.708000       1.565878      16.687843
       1.716000       1.565702      16.536785
       1.724000       1.565526      15.372549
       1.732000       1.565351      14.762203
       1.740000       1.565175      14.505859
       1.748000       1.564999      14.295290
       1.756000       1.564824      14.276979
       1.764000       1.564648      14.093876
       1.772000       1.564472      13.684944
       1.780000       1.564296      13.797857
       1.788000       1.564121      12.032434
       1.796000       1.563945      13.666634
       1.805000       1.563747      13.709358
       1.815000       1.563528      13.147840
       1.825000       1.563308      13.475901
       1.835000       1.563088      13.675789
       1.845000       1.562869      13.053236
       1.855000       1.562649      13.636116
       1.865000       1.562429      14.719481
       1.875000       1.562210      16.028671
       1.885000       1.561990      16.468121
       1.895000       1.561770      18.463951
       1.905000       1.561551      20.789368
       1.915000       1.561331      20.340763
       1.925000       1.561111      19.948616
       1.935000       1.560892      19.321487
       1.945000       1.560672      20.897705
       1.955000       1.560453      21.366142
       1.965000       1.560233      20.658142
       1.975000       1.560013      22.251144
       1.985000       1.559794      22.434250
       1.995000       1.559574      22.098557
       2.005000       1.559354      20.731384
       2.015000       1.559135      17.975674
       2.025000       1.558915      15.897448
       2.035000       1.558695      13.504892
       2.045000       1.558476      12.438314
       2.055000       1.558256      10.444012
       2.065000       1.558036      10.549295
       2.075000       1.557817       9.435415
       2.085000       1.557597       9.089043
       2.095000       1.557378       8.774715
       2.105000       1.557158      10.126631
       2.115000       1.556938      10.305157
       2.125000       1.556719       8.835751
       2.135000       1.556499       9.490345
       2.145000       1.556279       8.983759
       2.155000       1.556060       9.739061
       2.165000       1.555840      10.727821
       2.175000       1.555620      11.332064
       2.185000       1.555401      12.992201
       2.195000       1.555181      14.930050
       2.205000       1.554962      17.141026
       2.215000       1.554742      19.496960
       2.225000       1.554522      24.201199
       2.235000       1.554303      37.970589
       2.245000       1.554083      48.596710
       2.255000       1.553863      52.875221
       2.265000       1.553644      49.695328
       2.275000       1.553424      55.090775
       2.285000       1.553204      71.869186
       2.295000       1.552985      88.098267
       2.305000       1.552765      93.469299
       2.315000       1.552546     110.420387
       2.325000       1.552326     115.183983
       2.335000       1.552106     108.931763
       2.345000       1.551887     100.202454
       2.355000       1.551667      86.322159
       2.365000       1.551447      72.131622
       2.375000       1.551228      61.938858
       2.386000       1.550986      59.332680
       2.400000       1.550678      56.262642
       2.418000       1.550283      51.300529
       2.440000       1.549800      60.303131
       2.466000       1.549229      78.833221
       2.496000       1.548570      84.631500
       2.528000       1.547867      86.572403
       2.560000       1.547164      94.372620
       2.592000       1.546461      94.555710
       2.624000       1.545758      82.007019
       2.656000       1.545056      89.502060
       2.688000       1.544353     192.699707
       2.720000       1.543650      -1.23e34 
       2.752000       1.542947      -1.23e34 
       2.784000       1.542244      -1.23e34 
       2.816000       1.541541      -1.23e34 
       2.848000       1.540839      -1.23e34 
       2.880000       1.540136      -1.23e34 
       2.912000       1.539433      -1.23e34 
       2.944000       1.538730      -1.23e34 
       2.976000       1.538027      -1.23e34 
