data provided by Paul Lucey in 2006
derived using techniques of Lucey 1998
Forsterite, Fo= 60.0000
minimum grain size (microns)= 0.000000
maximum grain size=(microns) 60.0000
column 1= wavelength, micrometers
column 2= real index
column 3= imaginary index
 
     0.221100      1.71180 1.02716e-005
     0.229100      1.71180 1.34027e-006
     0.236100      1.71180 3.47820e-005
     0.242100      1.71180 8.87693e-005
     0.248100      1.71180  0.000139743
     0.253600      1.71180  0.000174287
     0.258600      1.71180  0.000199052
     0.263600      1.71180  0.000221055
     0.268600      1.71180  0.000242006
     0.273100      1.71180  0.000258963
     0.277100      1.71180  0.000269103
     0.281100      1.71180  0.000272662
     0.285100      1.71180  0.000278754
     0.289100      1.71180  0.000286298
     0.293100      1.71180  0.000292940
     0.297100      1.71180  0.000294926
     0.301100      1.71180  0.000297825
     0.305100      1.71180  0.000300220
     0.309100      1.71180  0.000304034
     0.313100      1.71180  0.000301293
     0.317100      1.71180  0.000303086
     0.321100      1.71180  0.000300875
     0.325100      1.71180  0.000299237
     0.329100      1.71180  0.000295814
     0.333100      1.71180  0.000287144
     0.337100      1.71180  0.000277077
     0.341100      1.71180  0.000263900
     0.345100      1.71180  0.000251607
     0.349100      1.71180  0.000248975
     0.353100      1.71180  0.000232619
     0.357100      1.71180  0.000217617
     0.360600      1.71180  0.000198392
     0.363600      1.71180  0.000183558
     0.366600      1.71180  0.000171542
     0.369600      1.71180  0.000160949
     0.372600      1.71180  0.000148646
     0.375600      1.71180  0.000140625
     0.378600      1.71180  0.000132149
     0.381100      1.71180  0.000126565
     0.383100      1.71180  0.000123639
     0.385100      1.71180  0.000119795
     0.387100      1.71180  0.000115249
     0.389100      1.71180  0.000112866
     0.391100      1.71180  0.000111397
     0.393100      1.71180  0.000107403
     0.395100      1.71180  0.000105554
     0.397100      1.71180  0.000104867
     0.399100      1.71180  0.000104895
     0.401100      1.71180  0.000106483
     0.403100      1.71180  0.000105946
     0.405100      1.71180 9.98655e-005
     0.407100      1.71180 9.57372e-005
     0.409100      1.71180 9.31486e-005
     0.411100      1.71180 9.02035e-005
     0.412800      1.71180 8.90993e-005
     0.415800      1.71180 8.79021e-005
     0.418800      1.71180 8.68504e-005
     0.421800      1.71180 8.66813e-005
     0.424800      1.71180 8.60822e-005
     0.427800      1.71180 8.58952e-005
     0.430800      1.71180 8.56991e-005
     0.433800      1.71180 8.58692e-005
     0.436800      1.71180 8.57121e-005
     0.439800      1.71180 8.44209e-005
     0.442800      1.71180 8.53741e-005
     0.445800      1.71180 8.72044e-005
     0.448800      1.71180 8.85072e-005
     0.451300      1.71180 8.96104e-005
     0.453300      1.71180 9.01195e-005
     0.455300      1.71180 9.09097e-005
     0.457300      1.71180 8.91743e-005
     0.459300      1.71180 8.92834e-005
     0.461300      1.71180 8.95034e-005
     0.463300      1.71180 8.70254e-005
     0.465300      1.71180 8.73445e-005
     0.467300      1.71180 8.63163e-005
     0.469300      1.71180 8.57872e-005
     0.471300      1.71180 8.62653e-005
     0.473300      1.71180 8.41008e-005
     0.475300      1.71180 8.22760e-005
     0.477300      1.71180 8.02856e-005
     0.479300      1.71180 7.85192e-005
     0.481300      1.71180 7.82392e-005
     0.483300      1.71180 7.80661e-005
     0.485300      1.71180 7.86122e-005
     0.487300      1.71180 7.86012e-005
     0.489300      1.71180 7.96524e-005
     0.491300      1.71180 8.00905e-005
     0.493300      1.71180 7.99645e-005
     0.495300      1.71180 8.08567e-005
     0.497300      1.71180 8.01005e-005
     0.499300      1.71180 7.81501e-005
     0.501300      1.71180 7.59782e-005
     0.503300      1.71180 7.41458e-005
     0.505300      1.71180 7.27055e-005
     0.507300      1.71180 7.09867e-005
     0.509300      1.71180 7.00985e-005
     0.511300      1.71180 6.97615e-005
     0.513300      1.71180 6.90883e-005
     0.515300      1.71180 6.83552e-005
     0.517300      1.71180 6.76180e-005
     0.519300      1.71180 6.70444e-005
     0.521300      1.71180 6.71354e-005
     0.523300      1.71180 6.58862e-005
     0.525300      1.71180 6.73705e-005
     0.527300      1.71180 6.66703e-005
     0.529300      1.71180 6.59672e-005
     0.531300      1.71180 6.50930e-005
     0.533300      1.71180 6.46069e-005
     0.535300      1.71180 6.41178e-005
     0.537300      1.71180 6.24470e-005
     0.539300      1.71180 6.31856e-005
     0.541300      1.71180 6.20119e-005
     0.543300      1.71180 6.10587e-005
     0.545300      1.71180 6.13968e-005
     0.547300      1.71180 6.04926e-005
     0.549300      1.71180 5.95294e-005
     0.551300      1.71180 5.91253e-005
     0.553300      1.71180 5.90573e-005
     0.555300      1.71180 5.87042e-005
     0.557300      1.71180 5.85752e-005
     0.559300      1.71180 5.87853e-005
     0.561300      1.71180 5.87673e-005
     0.563300      1.71180 5.88053e-005
     0.565300      1.71180 5.90713e-005
     0.567300      1.71180 5.96264e-005
     0.569300      1.71180 6.01845e-005
     0.571300      1.71180 5.90033e-005
     0.573300      1.71180 5.93254e-005
     0.575300      1.71180 5.97074e-005
     0.577300      1.71180 5.99735e-005
     0.579300      1.71180 6.00055e-005
     0.581300      1.71180 6.06846e-005
     0.583300      1.71180 6.11897e-005
     0.585300      1.71180 6.06856e-005
     0.587300      1.71180 6.13708e-005
     0.589300      1.71180 6.14598e-005
     0.591300      1.71180 6.17889e-005
     0.593300      1.71180 6.22990e-005
     0.595300      1.71180 6.29336e-005
     0.597300      1.71180 6.35707e-005
     0.599300      1.71180 6.34167e-005
     0.601100      1.71180 6.29956e-005
     0.602700      1.71180 6.37157e-005
     0.604300      1.71180 6.51190e-005
     0.605900      1.71180 6.48570e-005
     0.607500      1.71180 6.52150e-005
     0.609100      1.71180 6.53241e-005
     0.610700      1.71180 6.53091e-005
     0.612300      1.71180 6.61682e-005
     0.613900      1.71180 6.59022e-005
     0.615500      1.71180 6.66403e-005
     0.617100      1.71180 6.81441e-005
     0.618700      1.71180 6.74945e-005
     0.620300      1.71180 6.76050e-005
     0.621900      1.71180 6.79711e-005
     0.623500      1.71180 6.78261e-005
     0.625100      1.71180 6.71684e-005
     0.626700      1.71180 6.86242e-005
     0.628300      1.71180 6.78971e-005
     0.629900      1.71180 6.86512e-005
     0.631700      1.71180 6.82001e-005
     0.633700      1.71180 6.90653e-005
     0.635700      1.71180 6.84372e-005
     0.637700      1.71180 6.84572e-005
     0.639700      1.71180 6.78881e-005
     0.641700      1.71180 6.78381e-005
     0.643700      1.71180 6.70024e-005
     0.645700      1.71180 6.76040e-005
     0.647700      1.71180 6.63033e-005
     0.649700      1.71180 6.70344e-005
     0.651700      1.71180 6.56601e-005
     0.653700      1.71180 6.59272e-005
     0.655700      1.71180 6.66583e-005
     0.657700      1.71180 6.55361e-005
     0.659700      1.71180 6.56691e-005
     0.661700      1.71180 6.62012e-005
     0.663700      1.71180 6.52010e-005
     0.665700      1.71180 6.60652e-005
     0.667700      1.71180 6.68684e-005
     0.670200      1.71180 6.69164e-005
     0.673200      1.71180 6.76900e-005
     0.676200      1.71180 6.80601e-005
     0.679200      1.71180 6.92534e-005
     0.682200      1.71180 6.96964e-005
     0.685200      1.71180 7.05576e-005
     0.688200      1.71180 7.12157e-005
     0.691200      1.71180 7.19469e-005
     0.694200      1.71180 7.43089e-005
     0.697200      1.71180 7.36347e-005
     0.700200      1.71180 7.68164e-005
     0.702000      1.71180 7.68694e-005
     0.704000      1.71180 7.70884e-005
     0.706000      1.71180 7.94174e-005
     0.708000      1.71180 8.03016e-005
     0.710000      1.71180 8.12638e-005
     0.712000      1.71180 8.43869e-005
     0.714000      1.71180 8.47740e-005
     0.716000      1.71180 8.56871e-005
     0.718000      1.71180 8.74365e-005
     0.720000      1.71180 8.77561e-005
     0.722000      1.71180 9.07506e-005
     0.724000      1.71180 9.00035e-005
     0.726000      1.71180 9.34977e-005
     0.728000      1.71180 9.40668e-005
     0.730000      1.71180 9.56561e-005
     0.732000      1.71180 9.69424e-005
     0.734000      1.71180 9.95884e-005
     0.736000      1.71180  0.000101862
     0.738000      1.71180  0.000103269
     0.740000      1.71180  0.000105172
     0.742000      1.71180  0.000109146
     0.744000      1.71180  0.000109523
     0.746000      1.71180  0.000112146
     0.748000      1.71180  0.000113872
     0.750500      1.71180  0.000117382
     0.753500      1.71180  0.000120765
     0.756500      1.71180  0.000123757
     0.759500      1.71180  0.000128989
     0.762500      1.71180  0.000131545
     0.765500      1.71180  0.000137109
     0.768500      1.71180  0.000139838
     0.771500      1.71180  0.000146314
     0.774500      1.71180  0.000150273
     0.777500      1.71180  0.000153807
     0.781000      1.71180  0.000160207
     0.785000      1.71180  0.000168039
     0.789000      1.71180  0.000174034
     0.793000      1.71180  0.000180767
     0.797000      1.71180  0.000187114
     0.801500      1.71180  0.000196937
     0.806500      1.71180  0.000207283
     0.811500      1.71180  0.000219882
     0.816500      1.71180  0.000229382
     0.822000      1.71180  0.000242542
     0.828000      1.71180  0.000253690
     0.835000      1.71180  0.000266514
     0.843000      1.71180  0.000282227
     0.851000      1.71180  0.000333085
     0.859000      1.71180  0.000343450
     0.871000      1.71180  0.000365607
     0.883000      1.71180  0.000404373
     0.894000      1.71180  0.000428997
     0.904000      1.71180  0.000443497
     0.914000      1.71180  0.000468903
     0.924000      1.71180  0.000495288
     0.933000      1.71180  0.000540348
     0.941000      1.71180  0.000558498
     0.949000      1.71180  0.000600396
     0.957000      1.71180  0.000624496
     0.964000      1.71180  0.000669602
     0.970000      1.71180  0.000712237
     0.976000      1.71180  0.000737509
     0.982000      1.71180  0.000752024
     0.988000      1.71180  0.000813040
     0.994000      1.71180  0.000836198
      1.00000      1.71180  0.000875739
      1.00600      1.71180  0.000903181
      1.01200      1.71180  0.000911444
      1.01800      1.71180  0.000934053
      1.02350      1.71180  0.000982947
      1.02850      1.71180  0.000998819
      1.03350      1.71180   0.00104332
      1.03850      1.71180   0.00108695
      1.04350      1.71180   0.00107217
      1.04850      1.71180   0.00111482
      1.05350      1.71180   0.00111697
      1.05850      1.71180   0.00113321
      1.06350      1.71180   0.00117276
      1.06850      1.71180   0.00116024
      1.07350      1.71180   0.00115439
      1.07850      1.71180   0.00117300
      1.08350      1.71180   0.00117987
      1.08850      1.71180   0.00120572
      1.09350      1.71180   0.00120242
      1.09850      1.71180   0.00117936
      1.10350      1.71180   0.00118905
      1.10850      1.71180   0.00118195
      1.11350      1.71180   0.00116921
      1.11850      1.71180   0.00117588
      1.12350      1.71180   0.00115948
      1.12850      1.71180   0.00112653
      1.13350      1.71180   0.00114244
      1.13850      1.71180   0.00114152
      1.14350      1.71180   0.00108345
      1.14850      1.71180   0.00111447
      1.15350      1.71180   0.00111398
      1.15850      1.71180   0.00110818
      1.16350      1.71180   0.00110284
      1.16850      1.71180   0.00107853
      1.17350      1.71180   0.00111143
      1.17850      1.71180   0.00110033
      1.18350      1.71180   0.00111381
      1.18850      1.71180   0.00112430
      1.19350      1.71180   0.00112858
      1.19850      1.71180   0.00108626
      1.20350      1.71180   0.00110864
      1.20850      1.71180   0.00109230
      1.21350      1.71180   0.00112407
      1.21850      1.71180   0.00111184
      1.22350      1.71180   0.00112930
      1.22850      1.71180   0.00109124
      1.23350      1.71180   0.00111534
      1.23850      1.71180   0.00113637
      1.24350      1.71180   0.00112749
      1.24850      1.71180   0.00113113
      1.25350      1.71180   0.00115013
      1.25850      1.71180   0.00111745
      1.26350      1.71180   0.00112811
      1.26850      1.71180   0.00112277
      1.27350      1.71180   0.00113345
      1.27850      1.71180   0.00112052
      1.28350      1.71180   0.00109558
      1.28850      1.71180   0.00109380
      1.29350      1.71180   0.00110891
      1.29850      1.71180   0.00110099
      1.30350      1.71180   0.00111309
      1.30850      1.71180   0.00109515
      1.31350      1.71180   0.00107075
      1.31850      1.71180   0.00108459
      1.32350      1.71180   0.00107255
      1.32850      1.71180   0.00103715
      1.33350      1.71180   0.00106631
      1.33850      1.71180   0.00104702
      1.34350      1.71180   0.00104722
      1.34850      1.71180   0.00101021
      1.35350      1.71180   0.00101595
      1.35850      1.71180   0.00100261
      1.36350      1.71180  0.000973204
      1.36850      1.71180  0.000982945
      1.37350      1.71180  0.000954798
      1.37850      1.71180  0.000941782
      1.38350      1.71180  0.000925610
      1.38850      1.71180  0.000917268
      1.39350      1.71180  0.000902155
      1.39850      1.71180  0.000881616
      1.40350      1.71180  0.000866978
      1.40850      1.71180  0.000866603
      1.41350      1.71180  0.000829228
      1.41850      1.71180  0.000810349
      1.42350      1.71180  0.000802441
      1.42850      1.71180  0.000792325
      1.43350      1.71180  0.000761520
      1.43850      1.71180  0.000763864
      1.44350      1.71180  0.000729934
      1.44850      1.71180  0.000713883
      1.45350      1.71180  0.000702455
      1.45850      1.71180  0.000690265
      1.46350      1.71180  0.000662299
      1.46850      1.71180  0.000660897
      1.47350      1.71180  0.000640832
      1.47850      1.71180  0.000617106
      1.48350      1.71180  0.000618654
      1.48850      1.71180  0.000602001
      1.49350      1.71180  0.000580151
      1.49850      1.71180  0.000556485
      1.50350      1.71180  0.000547517
      1.50850      1.71180  0.000544830
      1.51350      1.71180  0.000524363
      1.51850      1.71180  0.000516827
      1.52350      1.71180  0.000495229
      1.52850      1.71180  0.000492821
      1.53400      1.71180  0.000479288
      1.54000      1.71180  0.000462616
      1.54600      1.71180  0.000450258
      1.55200      1.71180  0.000436456
      1.55800      1.71180  0.000420614
      1.56400      1.71180  0.000409758
      1.57050      1.71180  0.000390560
      1.57750      1.71180  0.000394655
      1.58450      1.71180  0.000378298
      1.59150      1.71180  0.000356793
      1.59850      1.71180  0.000356709
      1.60550      1.71180  0.000351251
      1.61250      1.71180  0.000338450
      1.61950      1.71180  0.000328177
      1.62650      1.71180  0.000323962
      1.63350      1.71180  0.000314948
      1.64050      1.71180  0.000308741
      1.64750      1.71180  0.000298607
      1.65450      1.71180  0.000296143
      1.66150      1.71180  0.000296215
      1.66850      1.71180  0.000287456
      1.67600      1.71180  0.000286399
      1.68400      1.71180  0.000274521
      1.69200      1.71180  0.000274274
      1.70000      1.71180  0.000271104
      1.70800      1.71180  0.000261937
      1.71600      1.71180  0.000266259
      1.72400      1.71180  0.000253980
      1.73200      1.71180  0.000255543
      1.74000      1.71180  0.000249786
      1.74800      1.71180  0.000257126
      1.75600      1.71180  0.000246871
      1.76400      1.71180  0.000243945
      1.77200      1.71180  0.000247374
      1.78000      1.71180  0.000247323
      1.78800      1.71180  0.000237758
      1.79600      1.71180  0.000234763
      1.80500      1.71180  0.000233810
      1.81500      1.71180  0.000245865
      1.82500      1.71180  0.000237574
      1.83500      1.71180  0.000241044
      1.84500      1.71180  0.000238398
      1.85500      1.71180  0.000242874
      1.86500      1.71180  0.000233428
      1.87500      1.71180  0.000244485
      1.88500      1.71180  0.000251878
      1.89500      1.71180  0.000248110
      1.90500      1.71180  0.000248397
      1.91500      1.71180  0.000261490
      1.92500      1.71180  0.000258472
      1.93500      1.71180  0.000250235
      1.94500      1.71180  0.000267067
      1.95500      1.71180  0.000263770
      1.96500      1.71180  0.000264268
      1.97500      1.71180  0.000265185
      1.98500      1.71180  0.000264169
      1.99500      1.71180  0.000263349
      2.00500      1.71180  0.000269647
      2.01500      1.71180  0.000274926
      2.02500      1.71180  0.000261657
      2.03500      1.71180  0.000273682
      2.04500      1.71180  0.000275027
      2.05500      1.71180  0.000275483
      2.06500      1.71180  0.000282421
      2.07500      1.71180  0.000282887
      2.08500      1.71180  0.000281762
      2.09500      1.71180  0.000286752
      2.10500      1.71180  0.000285834
      2.11500      1.71180  0.000288110
      2.12500      1.71180  0.000298980
      2.13500      1.71180  0.000295484
      2.14500      1.71180  0.000293363
      2.15500      1.71180  0.000301078
      2.16500      1.71180  0.000293982
      2.17500      1.71180  0.000312234
      2.18500      1.71180  0.000305030
      2.19500      1.71180  0.000307386
      2.20500      1.71180  0.000309753
      2.21500      1.71180  0.000320422
      2.22500      1.71180  0.000325317
      2.23500      1.71180  0.000319369
      2.24500      1.71180  0.000326251
      2.25500      1.71180  0.000328204
      2.26500      1.71180  0.000333177
      2.27500      1.71180  0.000331367
      2.28500      1.71180  0.000333077
      2.29500      1.71180  0.000334788
      2.30500      1.71180  0.000336502
      2.31500      1.71180  0.000344138
      2.32500      1.71180  0.000346920
      2.33500      1.71180  0.000357304
      2.34500      1.71180  0.000360947
      2.35500      1.71180  0.000361690
      2.36500      1.71180  0.000368563
      2.37500      1.71180  0.000367170
      2.38600      1.71180  0.000377517
      2.40000      1.71180  0.000384651
