data provided by Paul Lucey in 2006
derived using techniques of Lucey 1998
Forsterite, Fo= 18.0000
minimum grain size (microns)= 0.000000
maximum grain size=(microns) 60.0000
column 1= wavelength, micrometers
column 2= real index
column 3= imaginary index
 
     0.221100      1.79244 8.01635e-005
     0.229100      1.79244 9.00905e-005
     0.236100      1.79244 9.76470e-005
     0.242100      1.79244  0.000103429
     0.248100      1.79244  0.000109090
     0.253600      1.79244  0.000115182
     0.258600      1.79244  0.000118045
     0.263600      1.79244  0.000123643
     0.268600      1.79244  0.000126567
     0.273100      1.79244  0.000130793
     0.277100      1.79244  0.000133981
     0.281100      1.79244  0.000135859
     0.285100      1.79244  0.000141374
     0.289100      1.79244  0.000144666
     0.293100      1.79244  0.000147821
     0.297100      1.79244  0.000152263
     0.301100      1.79244  0.000156482
     0.305100      1.79244  0.000159278
     0.309100      1.79244  0.000160707
     0.313100      1.79244  0.000166564
     0.317100      1.79244  0.000169453
     0.321100      1.79244  0.000173070
     0.325100      1.79244  0.000173232
     0.329100      1.79244  0.000182446
     0.333100      1.79244  0.000180052
     0.337100      1.79244  0.000186272
     0.341100      1.79244  0.000187181
     0.345100      1.79244  0.000191238
     0.349100      1.79244  0.000191337
     0.353100      1.79244  0.000220895
     0.357100      1.79244  0.000219369
     0.360600      1.79244  0.000223409
     0.363600      1.79244  0.000217210
     0.366600      1.79244  0.000214349
     0.369600      1.79244  0.000211246
     0.372600      1.79244  0.000207573
     0.375600      1.79244  0.000203855
     0.378600      1.79244  0.000200587
     0.381100      1.79244  0.000195071
     0.383100      1.79244  0.000190285
     0.385100      1.79244  0.000188529
     0.387100      1.79244  0.000183625
     0.389100      1.79244  0.000178212
     0.391100      1.79244  0.000172769
     0.393100      1.79244  0.000170091
     0.395100      1.79244  0.000166792
     0.397100      1.79244  0.000166567
     0.399100      1.79244  0.000163300
     0.401100      1.79244  0.000163344
     0.403100      1.79244  0.000164018
     0.405100      1.79244  0.000162785
     0.407100      1.79244  0.000158909
     0.409100      1.79244  0.000153933
     0.411100      1.79244  0.000147928
     0.412800      1.79244  0.000147417
     0.415800      1.79244  0.000143769
     0.418800      1.79244  0.000140859
     0.421800      1.79244  0.000141223
     0.424800      1.79244  0.000140676
     0.427800      1.79244  0.000141152
     0.430800      1.79244  0.000140584
     0.433800      1.79244  0.000139746
     0.436800      1.79244  0.000137933
     0.439800      1.79244  0.000137462
     0.442800      1.79244  0.000137754
     0.445800      1.79244  0.000139729
     0.448800      1.79244  0.000142317
     0.451300      1.79244  0.000144110
     0.453300      1.79244  0.000145690
     0.455300      1.79244  0.000145995
     0.457300      1.79244  0.000145013
     0.459300      1.79244  0.000145715
     0.461300      1.79244  0.000144115
     0.463300      1.79244  0.000142250
     0.465300      1.79244  0.000140590
     0.467300      1.79244  0.000140994
     0.469300      1.79244  0.000140593
     0.471300      1.79244  0.000140055
     0.473300      1.79244  0.000138978
     0.475300      1.79244  0.000136445
     0.477300      1.79244  0.000132820
     0.479300      1.79244  0.000129490
     0.481300      1.79244  0.000128168
     0.483300      1.79244  0.000127803
     0.485300      1.79244  0.000126604
     0.487300      1.79244  0.000127831
     0.489300      1.79244  0.000127647
     0.491300      1.79244  0.000128169
     0.493300      1.79244  0.000129015
     0.495300      1.79244  0.000130977
     0.497300      1.79244  0.000130062
     0.499300      1.79244  0.000131243
     0.501300      1.79244  0.000127052
     0.503300      1.79244  0.000125163
     0.505300      1.79244  0.000122447
     0.507300      1.79244  0.000118361
     0.509300      1.79244  0.000117005
     0.511300      1.79244  0.000115586
     0.513300      1.79244  0.000113052
     0.515300      1.79244  0.000112378
     0.517300      1.79244  0.000111578
     0.519300      1.79244  0.000110036
     0.521300      1.79244  0.000109536
     0.523300      1.79244  0.000109280
     0.525300      1.79244  0.000108038
     0.527300      1.79244  0.000109003
     0.529300      1.79244  0.000107936
     0.531300      1.79244  0.000106561
     0.533300      1.79244  0.000105125
     0.535300      1.79244  0.000104908
     0.537300      1.79244  0.000103224
     0.539300      1.79244  0.000102209
     0.541300      1.79244  0.000100588
     0.543300      1.79244 9.94494e-005
     0.545300      1.79244 9.91513e-005
     0.547300      1.79244 9.75870e-005
     0.549300      1.79244 9.64433e-005
     0.551300      1.79244 9.60752e-005
     0.553300      1.79244 9.46269e-005
     0.555300      1.79244 9.49090e-005
     0.557300      1.79244 9.35157e-005
     0.559300      1.79244 9.42709e-005
     0.561300      1.79244 9.33477e-005
     0.563300      1.79244 9.42208e-005
     0.565300      1.79244 9.26905e-005
     0.567300      1.79244 9.32587e-005
     0.569300      1.79244 9.43749e-005
     0.571300      1.79244 9.37348e-005
     0.573300      1.79244 9.34557e-005
     0.575300      1.79244 9.45129e-005
     0.577300      1.79244 9.44129e-005
     0.579300      1.79244 9.51700e-005
     0.581300      1.79244 9.51290e-005
     0.583300      1.79244 9.57031e-005
     0.585300      1.79244 9.57211e-005
     0.587300      1.79244 9.61732e-005
     0.589300      1.79244 9.73135e-005
     0.591300      1.79244 9.58272e-005
     0.593300      1.79244 9.70294e-005
     0.595300      1.79244 9.72304e-005
     0.597300      1.79244 9.62953e-005
     0.599300      1.79244 9.82652e-005
     0.601100      1.79244 9.77961e-005
     0.602700      1.79244 9.84392e-005
     0.604300      1.79244 9.93414e-005
     0.605900      1.79244 9.96684e-005
     0.607500      1.79244  0.000100061
     0.609100      1.79244 9.95494e-005
     0.610700      1.79244 9.92293e-005
     0.612300      1.79244  0.000101242
     0.613900      1.79244  0.000100855
     0.615500      1.79244  0.000100465
     0.617100      1.79244  0.000102891
     0.618700      1.79244  0.000102037
     0.620300      1.79244  0.000102433
     0.621900      1.79244  0.000103559
     0.623500      1.79244  0.000102101
     0.625100      1.79244  0.000102827
     0.626700      1.79244  0.000102559
     0.628300      1.79244  0.000102421
     0.629900      1.79244  0.000102282
     0.631700      1.79244  0.000101841
     0.633700      1.79244  0.000102030
     0.635700      1.79244  0.000100750
     0.637700      1.79244  0.000101268
     0.639700      1.79244  0.000100916
     0.641700      1.79244  0.000100361
     0.643700      1.79244  0.000100071
     0.645700      1.79244  0.000100113
     0.647700      1.79244 9.79451e-005
     0.649700      1.79244 9.89173e-005
     0.651700      1.79244 9.88853e-005
     0.653700      1.79244 9.85162e-005
     0.655700      1.79244 9.82121e-005
     0.657700      1.79244 9.83762e-005
     0.659700      1.79244 9.69894e-005
     0.661700      1.79244 9.75530e-005
     0.663700      1.79244 9.94104e-005
     0.665700      1.79244 9.76680e-005
     0.667700      1.79244 9.97355e-005
     0.670200      1.79244  0.000100865
     0.673200      1.79244  0.000101732
     0.676200      1.79244  0.000102673
     0.679200      1.79244  0.000104743
     0.682200      1.79244  0.000104429
     0.685200      1.79244  0.000105739
     0.688200      1.79244  0.000107992
     0.691200      1.79244  0.000108751
     0.694200      1.79244  0.000111114
     0.697200      1.79244  0.000112622
     0.700200      1.79244  0.000114809
     0.702000      1.79244  0.000115104
     0.704000      1.79244  0.000115358
     0.706000      1.79244  0.000117789
     0.708000      1.79244  0.000119258
     0.710000      1.79244  0.000121197
     0.712000      1.79244  0.000121846
     0.714000      1.79244  0.000124894
     0.716000      1.79244  0.000124777
     0.718000      1.79244  0.000127475
     0.720000      1.79244  0.000127514
     0.722000      1.79244  0.000129530
     0.724000      1.79244  0.000130606
     0.726000      1.79244  0.000133456
     0.728000      1.79244  0.000135525
     0.730000      1.79244  0.000137039
     0.732000      1.79244  0.000140381
     0.734000      1.79244  0.000140764
     0.736000      1.79244  0.000141981
     0.738000      1.79244  0.000145729
     0.740000      1.79244  0.000145109
     0.742000      1.79244  0.000149934
     0.744000      1.79244  0.000151460
     0.746000      1.79244  0.000151954
     0.748000      1.79244  0.000154889
     0.750500      1.79244  0.000157874
     0.753500      1.79244  0.000161537
     0.756500      1.79244  0.000164255
     0.759500      1.79244  0.000169110
     0.762500      1.79244  0.000174612
     0.765500      1.79244  0.000180983
     0.768500      1.79244  0.000184483
     0.771500      1.79244  0.000190184
     0.774500      1.79244  0.000194794
     0.777500      1.79244  0.000197860
     0.781000      1.79244  0.000205907
     0.785000      1.79244  0.000215143
     0.789000      1.79244  0.000219557
     0.793000      1.79244  0.000228971
     0.797000      1.79244  0.000239673
     0.801500      1.79244  0.000248645
     0.806500      1.79244  0.000260170
     0.811500      1.79244  0.000275181
     0.816500      1.79244  0.000287183
     0.822000      1.79244  0.000300952
     0.828000      1.79244  0.000316648
     0.835000      1.79244  0.000332505
     0.843000      1.79244  0.000358460
     0.851000      1.79244  0.000374187
     0.859000      1.79244  0.000409513
     0.871000      1.79244  0.000433338
     0.883000      1.79244  0.000467441
     0.894000      1.79244  0.000504364
     0.904000      1.79244  0.000513961
     0.914000      1.79244  0.000535277
     0.924000      1.79244  0.000576409
     0.933000      1.79244  0.000595586
     0.941000      1.79244  0.000624946
     0.949000      1.79244  0.000632043
     0.957000      1.79244  0.000664716
     0.964000      1.79244  0.000682972
     0.970000      1.79244  0.000706103
     0.976000      1.79244  0.000732985
     0.982000      1.79244  0.000741389
     0.988000      1.79244  0.000761216
     0.994000      1.79244  0.000782844
      1.00000      1.79244  0.000825412
      1.00600      1.79244  0.000845467
      1.01200      1.79244  0.000857869
      1.01800      1.79244  0.000878707
      1.02350      1.79244  0.000902973
      1.02850      1.79244  0.000932127
      1.03350      1.79244  0.000929309
      1.03850      1.79244  0.000939629
      1.04350      1.79244  0.000975694
      1.04850      1.79244  0.000962967
      1.05350      1.79244  0.000982582
      1.05850      1.79244   0.00101190
      1.06350      1.79244   0.00101412
      1.06850      1.79244   0.00104930
      1.07350      1.79244   0.00108773
      1.07850      1.79244   0.00105734
      1.08350      1.79244   0.00104584
      1.08850      1.79244   0.00106087
      1.09350      1.79244   0.00105771
      1.09850      1.79244   0.00108698
      1.10350      1.79244   0.00110587
      1.10850      1.79244   0.00107991
      1.11350      1.79244   0.00107660
      1.11850      1.79244   0.00110118
      1.12350      1.79244   0.00112401
      1.12850      1.79244   0.00109754
      1.13350      1.79244   0.00108405
      1.13850      1.79244   0.00110680
      1.14350      1.79244   0.00111026
      1.14850      1.79244   0.00110811
      1.15350      1.79244   0.00108896
      1.15850      1.79244   0.00111917
      1.16350      1.79244   0.00111088
      1.16850      1.79244   0.00110219
      1.17350      1.79244   0.00111294
      1.17850      1.79244   0.00112190
      1.18350      1.79244   0.00111355
      1.18850      1.79244   0.00113570
      1.19350      1.79244   0.00116565
      1.19850      1.79244   0.00112437
      1.20350      1.79244   0.00111178
      1.20850      1.79244   0.00116015
      1.21350      1.79244   0.00115716
      1.21850      1.79244   0.00118408
      1.22350      1.79244   0.00116328
      1.22850      1.79244   0.00118133
      1.23350      1.79244   0.00118713
      1.23850      1.79244   0.00117952
      1.24350      1.79244   0.00120432
      1.24850      1.79244   0.00118556
      1.25350      1.79244   0.00121809
      1.25850      1.79244   0.00120612
      1.26350      1.79244   0.00120484
      1.26850      1.79244   0.00121265
      1.27350      1.79244   0.00120981
      1.27850      1.79244   0.00123199
      1.28350      1.79244   0.00125145
      1.28850      1.79244   0.00126642
      1.29350      1.79244   0.00123138
      1.29850      1.79244   0.00127894
      1.30350      1.79244   0.00125503
      1.30850      1.79244   0.00126940
      1.31350      1.79244   0.00126731
      1.31850      1.79244   0.00126787
      1.32350      1.79244   0.00125994
      1.32850      1.79244   0.00128125
      1.33350      1.79244   0.00128931
      1.33850      1.79244   0.00126890
      1.34350      1.79244   0.00126886
      1.34850      1.79244   0.00126298
      1.35350      1.79244   0.00127297
      1.35850      1.79244   0.00126231
      1.36350      1.79244   0.00124708
      1.36850      1.79244   0.00127054
      1.37350      1.79244   0.00129124
      1.37850      1.79244   0.00126342
      1.38350      1.79244   0.00124661
      1.38850      1.79244   0.00125423
      1.39350      1.79244   0.00122232
      1.39850      1.79244   0.00123178
      1.40350      1.79244   0.00121246
      1.40850      1.79244   0.00115454
      1.41350      1.79244   0.00118066
      1.41850      1.79244   0.00115186
      1.42350      1.79244   0.00112248
      1.42850      1.79244   0.00111456
      1.43350      1.79244   0.00109686
      1.43850      1.79244   0.00111056
      1.44350      1.79244   0.00108057
      1.44850      1.79244   0.00107643
      1.45350      1.79244   0.00106107
      1.45850      1.79244   0.00105144
      1.46350      1.79244   0.00101242
      1.46850      1.79244   0.00103578
      1.47350      1.79244  0.000984939
      1.47850      1.79244  0.000972445
      1.48350      1.79244  0.000942422
      1.48850      1.79244  0.000939124
      1.49350      1.79244  0.000939617
      1.49850      1.79244  0.000888323
      1.50350      1.79244  0.000889843
      1.50850      1.79244  0.000861836
      1.51350      1.79244  0.000853865
      1.51850      1.79244  0.000828543
      1.52350      1.79244  0.000817135
      1.52850      1.79244  0.000803540
      1.53400      1.79244  0.000775565
      1.54000      1.79244  0.000772207
      1.54600      1.79244  0.000728490
      1.55200      1.79244  0.000713519
      1.55800      1.79244  0.000703775
      1.56400      1.79244  0.000686244
      1.57050      1.79244  0.000654553
      1.57750      1.79244  0.000629262
      1.58450      1.79244  0.000613138
      1.59150      1.79244  0.000586043
      1.59850      1.79244  0.000567037
      1.60550      1.79244  0.000548639
      1.61250      1.79244  0.000537175
      1.61950      1.79244  0.000511170
      1.62650      1.79244  0.000495176
      1.63350      1.79244  0.000483803
      1.64050      1.79244  0.000463242
      1.64750      1.79244  0.000446645
      1.65450      1.79244  0.000433582
      1.66150      1.79244  0.000424763
      1.66850      1.79244  0.000399066
      1.67600      1.79244  0.000407195
      1.68400      1.79244  0.000384190
      1.69200      1.79244  0.000375104
      1.70000      1.79244  0.000358811
      1.70800      1.79244  0.000338248
      1.71600      1.79244  0.000337279
      1.72400      1.79244  0.000322096
      1.73200      1.79244  0.000313208
      1.74000      1.79244  0.000305500
      1.74800      1.79244  0.000298384
      1.75600      1.79244  0.000288856
      1.76400      1.79244  0.000275886
      1.77200      1.79244  0.000273270
      1.78000      1.79244  0.000274135
      1.78800      1.79244  0.000260327
      1.79600      1.79244  0.000250985
      1.80500      1.79244  0.000249175
      1.81500      1.79244  0.000241558
      1.82500      1.79244  0.000237154
      1.83500      1.79244  0.000237198
      1.84500      1.79244  0.000232210
      1.85500      1.79244  0.000233469
      1.86500      1.79244  0.000229327
      1.87500      1.79244  0.000225524
      1.88500      1.79244  0.000230338
      1.89500      1.79244  0.000218393
      1.90500      1.79244  0.000228769
      1.91500      1.79244  0.000229421
      1.92500      1.79244  0.000221850
      1.93500      1.79244  0.000223551
      1.94500      1.79244  0.000228019
      1.95500      1.79244  0.000227339
      1.96500      1.79244  0.000222945
      1.97500      1.79244  0.000219637
      1.98500      1.79244  0.000215205
      1.99500      1.79244  0.000225224
      2.00500      1.79244  0.000219982
      2.01500      1.79244  0.000219580
      2.02500      1.79244  0.000221423
      2.03500      1.79244  0.000217234
      2.04500      1.79244  0.000218679
      2.05500      1.79244  0.000220890
      2.06500      1.79244  0.000219482
      2.07500      1.79244  0.000220354
      2.08500      1.79244  0.000221801
      2.09500      1.79244  0.000220355
      2.10500      1.79244  0.000220825
      2.11500      1.79244  0.000219542
      2.12500      1.79244  0.000224097
      2.13500      1.79244  0.000218881
      2.14500      1.79244  0.000220692
      2.15500      1.79244  0.000225872
      2.16500      1.79244  0.000229911
      2.17500      1.79244  0.000231175
      2.18500      1.79244  0.000239324
      2.19500      1.79244  0.000242875
      2.20500      1.79244  0.000241105
      2.21500      1.79244  0.000252559
      2.22500      1.79244  0.000247440
      2.23500      1.79244  0.000264777
      2.24500      1.79244  0.000261700
      2.25500      1.79244  0.000271446
      2.26500      1.79244  0.000274167
      2.27500      1.79244  0.000279523
      2.28500      1.79244  0.000268963
      2.29500      1.79244  0.000278017
      2.30500      1.79244  0.000288544
      2.31500      1.79244  0.000290692
      2.32500      1.79244  0.000266633
      2.33500      1.79244  0.000275957
      2.34500      1.79244  0.000274246
      2.35500      1.79244  0.000279217
      2.36500      1.79244  0.000280853
      2.37500      1.79244  0.000284984
      2.38600      1.79244  0.000282893
      2.40000      1.79244  0.000283183
