Data created using the Lorantz line parameters in J.R. Aronson and P.F.
Strong, Optical constants of minerals and rocks, Applied Optics, 14, 
2914-2920, 1975.  These could be recalculated at any spectral resolution.
Range of validity is given as 1600-250 inverse centimeters.  Be sure to
check the reference for a description of the sample.

high frq. dielec. const=  1.982
Lorentz line parameters
center  width  strength
1548.0  0.1848  0.1870
1357.7  0.0985  0.0490
1155.8  0.0442  0.0100
1077.4  0.0862  0.1180
 979.7  0.1022  0.2080
 919.8  0.1019  0.4950
 723.2  0.1681  0.2140
 585.8  0.1466  0.4100
 528.9  0.0704  0.1970
 491.3  0.0979  0.1240
 392.6  0.2232  1.2910
 330.4  0.1044  0.1890

 wave.    freq.   refl.    real   imag.
40.0000   250.0  0.1990   2.603  0.1302
39.6825   252.0  0.1999   2.609  0.1336
39.3701   254.0  0.2008   2.616  0.1372
39.0625   256.0  0.2018   2.622  0.1409
38.7597   258.0  0.2028   2.629  0.1447
38.4615   260.0  0.2038   2.636  0.1487
38.1679   262.0  0.2049   2.644  0.1529
37.8788   264.0  0.2060   2.651  0.1573
37.5940   266.0  0.2071   2.659  0.1619
37.3134   268.0  0.2083   2.667  0.1667
37.0370   270.0  0.2095   2.675  0.1717
36.7647   272.0  0.2107   2.683  0.1770
36.4964   274.0  0.2120   2.692  0.1826
36.2319   276.0  0.2133   2.701  0.1885
35.9712   278.0  0.2146   2.710  0.1947
35.7143   280.0  0.2160   2.720  0.2013
35.4610   282.0  0.2175   2.729  0.2083
35.2113   284.0  0.2190   2.739  0.2158
34.9650   286.0  0.2205   2.750  0.2237
34.7222   288.0  0.2221   2.760  0.2322
34.4828   290.0  0.2238   2.772  0.2412
34.2466   292.0  0.2255   2.783  0.2510
34.0136   294.0  0.2273   2.795  0.2616
33.7838   296.0  0.2292   2.807  0.2730
33.5570   298.0  0.2312   2.819  0.2853
33.3333   300.0  0.2332   2.832  0.2988
33.1126   302.0  0.2353   2.845  0.3136
32.8947   304.0  0.2375   2.858  0.3299
32.6797   306.0  0.2398   2.871  0.3477
32.4675   308.0  0.2421   2.884  0.3675
32.2581   310.0  0.2445   2.897  0.3894
32.0513   312.0  0.2469   2.909  0.4137
31.8471   314.0  0.2493   2.919  0.4405
31.6456   316.0  0.2516   2.928  0.4700
31.4465   318.0  0.2538   2.934  0.5020
31.2500   320.0  0.2557   2.936  0.5363
31.0559   322.0  0.2573   2.933  0.5720
30.8642   324.0  0.2584   2.925  0.6079
30.6748   326.0  0.2588   2.911  0.6421
30.4878   328.0  0.2584   2.892  0.6726
30.3030   330.0  0.2574   2.868  0.6975
30.1205   332.0  0.2558   2.843  0.7158
29.9401   334.0  0.2538   2.818  0.7271
29.7619   336.0  0.2518   2.796  0.7327
29.5858   338.0  0.2500   2.779  0.7343
29.4118   340.0  0.2486   2.767  0.7338
29.2398   342.0  0.2477   2.760  0.7331
29.0698   344.0  0.2474   2.757  0.7335
28.9017   346.0  0.2476   2.757  0.7361
28.7356   348.0  0.2483   2.760  0.7413
28.5714   350.0  0.2494   2.764  0.7493
28.4091   352.0  0.2508   2.769  0.7602
28.2486   354.0  0.2524   2.774  0.7740
28.0899   356.0  0.2543   2.779  0.7905
27.9330   358.0  0.2562   2.783  0.8095
27.7778   360.0  0.2582   2.786  0.8308
27.6243   362.0  0.2603   2.787  0.8542
27.4725   364.0  0.2624   2.786  0.8795
27.3224   366.0  0.2645   2.784  0.9064
27.1739   368.0  0.2665   2.779  0.9346
27.0270   370.0  0.2684   2.771  0.9640
26.8817   372.0  0.2702   2.761  0.9941
26.7380   374.0  0.2719   2.748   1.025
26.5957   376.0  0.2735   2.732   1.055
26.4550   378.0  0.2748   2.713   1.086
26.3158   380.0  0.2760   2.691   1.115
26.1780   382.0  0.2768   2.665   1.144
26.0417   384.0  0.2774   2.637   1.171
25.9067   386.0  0.2777   2.606   1.196
25.7732   388.0  0.2777   2.572   1.218
25.6410   390.0  0.2773   2.536   1.238
25.5102   392.0  0.2765   2.497   1.255
25.3807   394.0  0.2752   2.458   1.268
25.2525   396.0  0.2736   2.417   1.278
25.1256   398.0  0.2715   2.375   1.285
25.0000   400.0  0.2690   2.333   1.287
24.8756   402.0  0.2660   2.291   1.286
24.7525   404.0  0.2626   2.250   1.282
24.6305   406.0  0.2587   2.210   1.273
24.5098   408.0  0.2545   2.171   1.262
24.3902   410.0  0.2498   2.134   1.247
24.2718   412.0  0.2448   2.099   1.230
24.1546   414.0  0.2394   2.067   1.210
24.0385   416.0  0.2339   2.037   1.188
23.9234   418.0  0.2280   2.009   1.164
23.8095   420.0  0.2221   1.984   1.139
23.6967   422.0  0.2161   1.963   1.112
23.5849   424.0  0.2100   1.944   1.085
23.4742   426.0  0.2040   1.928   1.056
23.3645   428.0  0.1982   1.914   1.028
23.2558   430.0  0.1925   1.904  0.9992
23.1481   432.0  0.1871   1.896  0.9707
23.0415   434.0  0.1820   1.891  0.9427
22.9358   436.0  0.1773   1.889  0.9153
22.8311   438.0  0.1729   1.889  0.8887
22.7273   440.0  0.1691   1.891  0.8631
22.6244   442.0  0.1657   1.895  0.8387
22.5225   444.0  0.1627   1.902  0.8157
22.4215   446.0  0.1603   1.910  0.7940
22.3214   448.0  0.1584   1.920  0.7740
22.2222   450.0  0.1569   1.931  0.7555
22.1239   452.0  0.1559   1.944  0.7389
22.0264   454.0  0.1554   1.957  0.7240
21.9298   456.0  0.1553   1.972  0.7110
21.8341   458.0  0.1557   1.988  0.7000
21.7391   460.0  0.1564   2.004  0.6910
21.6450   462.0  0.1575   2.021  0.6841
21.5517   464.0  0.1589   2.039  0.6794
21.4592   466.0  0.1606   2.056  0.6768
21.3675   468.0  0.1626   2.074  0.6766
21.2766   470.0  0.1648   2.091  0.6786
21.1864   472.0  0.1672   2.107  0.6828
21.0970   474.0  0.1697   2.122  0.6893
21.0084   476.0  0.1722   2.136  0.6977
20.9205   478.0  0.1748   2.149  0.7079
20.8333   480.0  0.1773   2.159  0.7196
20.7469   482.0  0.1796   2.167  0.7322
20.6612   484.0  0.1817   2.172  0.7451
20.5761   486.0  0.1835   2.175  0.7577
20.4918   488.0  0.1850   2.176  0.7694
20.4082   490.0  0.1861   2.176  0.7794
20.3252   492.0  0.1869   2.174  0.7875
20.2429   494.0  0.1875   2.173  0.7936
20.1613   496.0  0.1880   2.173  0.7978
20.0803   498.0  0.1885   2.174  0.8008
20.0000   500.0  0.1892   2.178  0.8033
19.9203   502.0  0.1902   2.184  0.8062
19.8413   504.0  0.1917   2.193  0.8107
19.7628   506.0  0.1937   2.204  0.8176
19.6850   508.0  0.1964   2.217  0.8280
19.6078   510.0  0.1996   2.231  0.8425
19.5312   512.0  0.2033   2.244  0.8620
19.4553   514.0  0.2076   2.256  0.8866
19.3798   516.0  0.2122   2.265  0.9166
19.3050   518.0  0.2171   2.269  0.9514
19.2308   520.0  0.2219   2.267  0.9903
19.1571   522.0  0.2265   2.256   1.032
19.0840   524.0  0.2305   2.236   1.073
19.0114   526.0  0.2336   2.207   1.111
18.9394   528.0  0.2355   2.168   1.143
18.8679   530.0  0.2359   2.123   1.166
18.7970   532.0  0.2348   2.075   1.179
18.7266   534.0  0.2320   2.026   1.181
18.6567   536.0  0.2279   1.981   1.174
18.5874   538.0  0.2228   1.941   1.158
18.5185   540.0  0.2171   1.908   1.137
18.4502   542.0  0.2112   1.882   1.112
18.3824   544.0  0.2055   1.864   1.087
18.3150   546.0  0.2003   1.852   1.062
18.2482   548.0  0.1958   1.846   1.040
18.1818   550.0  0.1921   1.844   1.021
18.1159   552.0  0.1893   1.845   1.005
18.0505   554.0  0.1874   1.849  0.9923
17.9856   556.0  0.1861   1.853  0.9835
17.9211   558.0  0.1855   1.858  0.9780
17.8571   560.0  0.1855   1.863  0.9757
17.7936   562.0  0.1859   1.867  0.9763
17.7305   564.0  0.1866   1.870  0.9794
17.6678   566.0  0.1876   1.872  0.9846
17.6056   568.0  0.1888   1.871  0.9916
17.5439   570.0  0.1901   1.869   1.000
17.4825   572.0  0.1914   1.864   1.009
17.4216   574.0  0.1927   1.857   1.019
17.3611   576.0  0.1939   1.848   1.029
17.3010   578.0  0.1949   1.837   1.039
17.2414   580.0  0.1957   1.823   1.048
17.1821   582.0  0.1963   1.807   1.055
17.1233   584.0  0.1965   1.789   1.062
17.0648   586.0  0.1964   1.770   1.067
17.0068   588.0  0.1960   1.749   1.070
16.9492   590.0  0.1951   1.728   1.070
16.8919   592.0  0.1939   1.705   1.069
16.8350   594.0  0.1922   1.682   1.065
16.7785   596.0  0.1900   1.660   1.059
16.7224   598.0  0.1875   1.637   1.051
16.6667   600.0  0.1845   1.615   1.041
16.6113   602.0  0.1811   1.594   1.028
16.5563   604.0  0.1774   1.575   1.014
16.5017   606.0  0.1733   1.556  0.9979
16.4474   608.0  0.1690   1.539  0.9805
16.3934   610.0  0.1644   1.524  0.9617
16.3399   612.0  0.1597   1.510  0.9420
16.2866   614.0  0.1548   1.499  0.9215
16.2338   616.0  0.1498   1.489  0.9004
16.1812   618.0  0.1449   1.481  0.8790
16.1290   620.0  0.1400   1.474  0.8574
16.0772   622.0  0.1352   1.470  0.8358
16.0256   624.0  0.1306   1.467  0.8144
15.9744   626.0  0.1261   1.465  0.7934
15.9236   628.0  0.1219   1.466  0.7729
15.8730   630.0  0.1180   1.467  0.7530
15.8228   632.0  0.1144   1.470  0.7338
15.7729   634.0  0.1110   1.474  0.7154
15.7233   636.0  0.1080   1.479  0.6978
15.6740   638.0  0.1053   1.485  0.6812
15.6250   640.0  0.1029   1.492  0.6654
15.5763   642.0  0.1009   1.500  0.6507
15.5280   644.0  0.0991   1.508  0.6369
15.4799   646.0  0.0976   1.517  0.6241
15.4321   648.0  0.0964   1.526  0.6122
15.3846   650.0  0.0955   1.535  0.6014
15.3374   652.0  0.0948   1.545  0.5915
15.2905   654.0  0.0943   1.555  0.5825
15.2439   656.0  0.0940   1.565  0.5744
15.1976   658.0  0.0939   1.575  0.5672
15.1515   660.0  0.0939   1.586  0.5609
15.1057   662.0  0.0941   1.596  0.5554
15.0602   664.0  0.0945   1.606  0.5507
15.0150   666.0  0.0950   1.616  0.5467
14.9701   668.0  0.0955   1.626  0.5436
14.9254   670.0  0.0962   1.635  0.5411
14.8810   672.0  0.0970   1.645  0.5393
14.8368   674.0  0.0978   1.654  0.5382
14.7929   676.0  0.0986   1.662  0.5377
14.7493   678.0  0.0996   1.671  0.5378
14.7059   680.0  0.1005   1.679  0.5384
14.6628   682.0  0.1015   1.686  0.5395
14.6199   684.0  0.1025   1.693  0.5411
14.5773   686.0  0.1034   1.700  0.5432
14.5349   688.0  0.1044   1.706  0.5456
14.4928   690.0  0.1054   1.711  0.5484
14.4509   692.0  0.1063   1.716  0.5514
14.4092   694.0  0.1072   1.720  0.5547
14.3678   696.0  0.1081   1.724  0.5582
14.3266   698.0  0.1089   1.727  0.5618
14.2857   700.0  0.1097   1.730  0.5655
14.2450   702.0  0.1103   1.731  0.5692
14.2045   704.0  0.1109   1.733  0.5728
14.1643   706.0  0.1115   1.733  0.5763
14.1243   708.0  0.1119   1.733  0.5796
14.0845   710.0  0.1122   1.733  0.5826
14.0449   712.0  0.1125   1.732  0.5853
14.0056   714.0  0.1126   1.730  0.5876
13.9665   716.0  0.1126   1.728  0.5895
13.9276   718.0  0.1126   1.726  0.5909
13.8889   720.0  0.1124   1.723  0.5918
13.8504   722.0  0.1121   1.720  0.5920
13.8122   724.0  0.1117   1.717  0.5917
13.7741   726.0  0.1112   1.713  0.5908
13.7363   728.0  0.1107   1.710  0.5892
13.6986   730.0  0.1100   1.707  0.5870
13.6612   732.0  0.1093   1.703  0.5842
13.6240   734.0  0.1085   1.700  0.5808
13.5870   736.0  0.1077   1.698  0.5768
13.5501   738.0  0.1068   1.695  0.5722
13.5135   740.0  0.1059   1.693  0.5672
13.4771   742.0  0.1050   1.692  0.5617
13.4409   744.0  0.1041   1.690  0.5558
13.4048   746.0  0.1032   1.690  0.5496
13.3690   748.0  0.1024   1.690  0.5431
13.3333   750.0  0.1015   1.690  0.5363
13.2979   752.0  0.1008   1.691  0.5294
13.2626   754.0  0.1001   1.693  0.5224
13.2275   756.0  0.0994   1.695  0.5153
13.1926   758.0  0.0989   1.698  0.5082
13.1579   760.0  0.0984   1.701  0.5011
13.1234   762.0  0.0981   1.705  0.4941
13.0890   764.0  0.0978   1.710  0.4872
13.0548   766.0  0.0976   1.715  0.4805
13.0208   768.0  0.0975   1.720  0.4740
12.9870   770.0  0.0975   1.726  0.4678
12.9534   772.0  0.0976   1.733  0.4617
12.9199   774.0  0.0979   1.740  0.4560
12.8866   776.0  0.0982   1.747  0.4505
12.8535   778.0  0.0986   1.755  0.4454
12.8205   780.0  0.0991   1.763  0.4405
12.7877   782.0  0.0997   1.771  0.4361
12.7551   784.0  0.1004   1.780  0.4319
12.7226   786.0  0.1012   1.789  0.4281
12.6904   788.0  0.1020   1.798  0.4247
12.6582   790.0  0.1030   1.807  0.4217
12.6263   792.0  0.1040   1.817  0.4190
12.5945   794.0  0.1051   1.827  0.4167
12.5628   796.0  0.1062   1.837  0.4148
12.5313   798.0  0.1074   1.848  0.4132
12.5000   800.0  0.1087   1.859  0.4121
12.4688   802.0  0.1101   1.869  0.4113
12.4378   804.0  0.1115   1.880  0.4109
12.4069   806.0  0.1130   1.892  0.4109
12.3762   808.0  0.1145   1.903  0.4113
12.3457   810.0  0.1161   1.914  0.4121
12.3153   812.0  0.1178   1.926  0.4133
12.2850   814.0  0.1195   1.938  0.4149
12.2549   816.0  0.1212   1.950  0.4169
12.2249   818.0  0.1230   1.962  0.4193
12.1951   820.0  0.1249   1.974  0.4222
12.1655   822.0  0.1268   1.986  0.4255
12.1359   824.0  0.1287   1.998  0.4292
12.1065   826.0  0.1307   2.011  0.4334
12.0773   828.0  0.1328   2.024  0.4380
12.0482   830.0  0.1349   2.036  0.4431
12.0192   832.0  0.1371   2.049  0.4487
11.9904   834.0  0.1393   2.062  0.4548
11.9617   836.0  0.1416   2.075  0.4615
11.9332   838.0  0.1439   2.088  0.4686
11.9048   840.0  0.1462   2.101  0.4764
11.8765   842.0  0.1487   2.115  0.4847
11.8483   844.0  0.1511   2.128  0.4936
11.8203   846.0  0.1537   2.141  0.5031
11.7925   848.0  0.1563   2.154  0.5133
11.7647   850.0  0.1589   2.168  0.5241
11.7371   852.0  0.1616   2.181  0.5357
11.7096   854.0  0.1644   2.194  0.5480
11.6822   856.0  0.1672   2.208  0.5611
11.6550   858.0  0.1701   2.221  0.5749
11.6279   860.0  0.1731   2.234  0.5896
11.6009   862.0  0.1761   2.247  0.6052
11.5741   864.0  0.1792   2.259  0.6216
11.5473   866.0  0.1823   2.272  0.6390
11.5207   868.0  0.1855   2.284  0.6573
11.4943   870.0  0.1888   2.296  0.6767
11.4679   872.0  0.1921   2.307  0.6971
11.4416   874.0  0.1955   2.318  0.7185
11.4155   876.0  0.1990   2.328  0.7411
11.3895   878.0  0.2025   2.338  0.7647
11.3636   880.0  0.2061   2.347  0.7894
11.3379   882.0  0.2097   2.354  0.8153
11.3122   884.0  0.2134   2.361  0.8422
11.2867   886.0  0.2171   2.367  0.8703
11.2613   888.0  0.2209   2.371  0.8994
11.2360   890.0  0.2247   2.374  0.9295
11.2108   892.0  0.2285   2.376  0.9605
11.1857   894.0  0.2324   2.375  0.9923
11.1607   896.0  0.2362   2.373   1.025
11.1359   898.0  0.2401   2.369   1.058
11.1111   900.0  0.2439   2.363   1.092
11.0865   902.0  0.2477   2.354   1.125
11.0619   904.0  0.2514   2.344   1.159
11.0375   906.0  0.2551   2.331   1.192
11.0132   908.0  0.2586   2.315   1.225
10.9890   910.0  0.2621   2.297   1.257
10.9649   912.0  0.2654   2.277   1.289
10.9409   914.0  0.2686   2.255   1.318
10.9170   916.0  0.2716   2.231   1.347
10.8932   918.0  0.2745   2.204   1.373
10.8696   920.0  0.2771   2.177   1.397
10.8460   922.0  0.2795   2.147   1.420
10.8225   924.0  0.2817   2.117   1.440
10.7991   926.0  0.2836   2.086   1.457
10.7759   928.0  0.2853   2.055   1.472
10.7527   930.0  0.2867   2.023   1.485
10.7296   932.0  0.2879   1.991   1.496
10.7066   934.0  0.2888   1.960   1.504
10.6838   936.0  0.2896   1.929   1.511
10.6610   938.0  0.2901   1.899   1.515
10.6383   940.0  0.2904   1.870   1.518
10.6157   942.0  0.2906   1.842   1.520
10.5932   944.0  0.2907   1.815   1.520
10.5708   946.0  0.2906   1.790   1.519
10.5485   948.0  0.2904   1.765   1.518
10.5263   950.0  0.2903   1.742   1.516
10.5042   952.0  0.2901   1.719   1.514
10.4822   954.0  0.2899   1.698   1.512
10.4603   956.0  0.2897   1.677   1.509
10.4384   958.0  0.2896   1.657   1.507
10.4167   960.0  0.2896   1.638   1.505
10.3950   962.0  0.2896   1.619   1.502
10.3734   964.0  0.2898   1.600   1.500
10.3520   966.0  0.2900   1.582   1.499
10.3306   968.0  0.2903   1.563   1.497
10.3093   970.0  0.2907   1.544   1.495
10.2881   972.0  0.2911   1.525   1.493
10.2669   974.0  0.2916   1.506   1.491
10.2459   976.0  0.2921   1.486   1.489
10.2249   978.0  0.2925   1.466   1.486
10.2041   980.0  0.2929   1.446   1.482
10.1833   982.0  0.2933   1.426   1.478
10.1626   984.0  0.2935   1.405   1.473
10.1420   986.0  0.2936   1.384   1.468
10.1215   988.0  0.2935   1.364   1.461
10.1010   990.0  0.2933   1.343   1.453
10.0806   992.0  0.2928   1.323   1.445
10.0604   994.0  0.2921   1.304   1.435
10.0402   996.0  0.2911   1.284   1.424
10.0200   998.0  0.2899   1.266   1.413
10.0000  1000.0  0.2884   1.248   1.400
 9.9800  1002.0  0.2866   1.231   1.387
 9.9602  1004.0  0.2845   1.215   1.373
 9.9404  1006.0  0.2821   1.200   1.359
 9.9206  1008.0  0.2795   1.186   1.344
 9.9010  1010.0  0.2766   1.173   1.328
 9.8814  1012.0  0.2734   1.161   1.312
 9.8619  1014.0  0.2700   1.150   1.296
 9.8425  1016.0  0.2664   1.141   1.280
 9.8232  1018.0  0.2627   1.133   1.264
 9.8039  1020.0  0.2588   1.126   1.247
 9.7847  1022.0  0.2548   1.120   1.232
 9.7656  1024.0  0.2507   1.115   1.216
 9.7466  1026.0  0.2466   1.112   1.201
 9.7276  1028.0  0.2425   1.109   1.187
 9.7087  1030.0  0.2385   1.107   1.173
 9.6899  1032.0  0.2346   1.107   1.160
 9.6712  1034.0  0.2309   1.107   1.148
 9.6525  1036.0  0.2274   1.108   1.137
 9.6339  1038.0  0.2241   1.109   1.127
 9.6154  1040.0  0.2211   1.111   1.118
 9.5969  1042.0  0.2184   1.113   1.110
 9.5785  1044.0  0.2160   1.116   1.103
 9.5602  1046.0  0.2140   1.119   1.097
 9.5420  1048.0  0.2124   1.121   1.093
 9.5238  1050.0  0.2112   1.123   1.090
 9.5057  1052.0  0.2104   1.125   1.088
 9.4877  1054.0  0.2099   1.127   1.087
 9.4697  1056.0  0.2099   1.127   1.087
 9.4518  1058.0  0.2102   1.127   1.088
 9.4340  1060.0  0.2109   1.126   1.090
 9.4162  1062.0  0.2119   1.124   1.092
 9.3985  1064.0  0.2132   1.121   1.095
 9.3809  1066.0  0.2147   1.116   1.099
 9.3633  1068.0  0.2165   1.111   1.102
 9.3458  1070.0  0.2184   1.104   1.106
 9.3284  1072.0  0.2205   1.095   1.109
 9.3110  1074.0  0.2227   1.086   1.112
 9.2937  1076.0  0.2249   1.075   1.115
 9.2764  1078.0  0.2271   1.063   1.116
 9.2593  1080.0  0.2293   1.051   1.117
 9.2421  1082.0  0.2314   1.037   1.117
 9.2251  1084.0  0.2333   1.023   1.116
 9.2081  1086.0  0.2351   1.008   1.113
 9.1912  1088.0  0.2366  0.9928   1.109
 9.1743  1090.0  0.2379  0.9775   1.104
 9.1575  1092.0  0.2389  0.9622   1.098
 9.1408  1094.0  0.2395  0.9469   1.091
 9.1241  1096.0  0.2399  0.9320   1.082
 9.1075  1098.0  0.2398  0.9174   1.073
 9.0909  1100.0  0.2394  0.9033   1.062
 9.0744  1102.0  0.2386  0.8898   1.050
 9.0580  1104.0  0.2375  0.8771   1.038
 9.0416  1106.0  0.2359  0.8650   1.025
 9.0253  1108.0  0.2339  0.8538   1.011
 9.0090  1110.0  0.2316  0.8435  0.9961
 8.9928  1112.0  0.2288  0.8341  0.9811
 8.9767  1114.0  0.2257  0.8257  0.9657
 8.9606  1116.0  0.2223  0.8182  0.9500
 8.9445  1118.0  0.2185  0.8117  0.9341
 8.9286  1120.0  0.2145  0.8061  0.9181
 8.9127  1122.0  0.2102  0.8016  0.9021
 8.8968  1124.0  0.2057  0.7980  0.8863
 8.8810  1126.0  0.2010  0.7953  0.8707
 8.8652  1128.0  0.1962  0.7935  0.8555
 8.8496  1130.0  0.1913  0.7926  0.8407
 8.8339  1132.0  0.1864  0.7924  0.8265
 8.8183  1134.0  0.1816  0.7928  0.8130
 8.8028  1136.0  0.1770  0.7938  0.8002
 8.7873  1138.0  0.1726  0.7951  0.7883
 8.7719  1140.0  0.1684  0.7967  0.7773
 8.7566  1142.0  0.1646  0.7982  0.7671
 8.7413  1144.0  0.1612  0.7995  0.7579
 8.7260  1146.0  0.1581  0.8004  0.7493
 8.7108  1148.0  0.1554  0.8007  0.7414
 8.6957  1150.0  0.1531  0.8001  0.7339
 8.6806  1152.0  0.1510  0.7988  0.7264
 8.6655  1154.0  0.1490  0.7965  0.7188
 8.6505  1156.0  0.1472  0.7935  0.7106
 8.6356  1158.0  0.1452  0.7899  0.7018
 8.6207  1160.0  0.1430  0.7859  0.6920
 8.6059  1162.0  0.1406  0.7818  0.6812
 8.5911  1164.0  0.1378  0.7780  0.6694
 8.5763  1166.0  0.1346  0.7746  0.6567
 8.5616  1168.0  0.1311  0.7720  0.6432
 8.5470  1170.0  0.1271  0.7701  0.6291
 8.5324  1172.0  0.1228  0.7692  0.6145
 8.5179  1174.0  0.1183  0.7693  0.5997
 8.5034  1176.0  0.1135  0.7703  0.5847
 8.4890  1178.0  0.1087  0.7723  0.5699
 8.4746  1180.0  0.1037  0.7751  0.5552
 8.4602  1182.0  0.0988  0.7788  0.5409
 8.4459  1184.0  0.0939  0.7833  0.5269
 8.4317  1186.0  0.0891  0.7884  0.5134
 8.4175  1188.0  0.0844  0.7941  0.5003
 8.4034  1190.0  0.0799  0.8002  0.4878
 8.3893  1192.0  0.0755  0.8069  0.4758
 8.3752  1194.0  0.0714  0.8139  0.4643
 8.3612  1196.0  0.0674  0.8212  0.4534
 8.3472  1198.0  0.0637  0.8288  0.4430
 8.3333  1200.0  0.0602  0.8366  0.4331
 8.3195  1202.0  0.0569  0.8445  0.4238
 8.3056  1204.0  0.0538  0.8526  0.4149
 8.2919  1206.0  0.0509  0.8608  0.4065
 8.2781  1208.0  0.0482  0.8691  0.3986
 8.2645  1210.0  0.0457  0.8774  0.3911
 8.2508  1212.0  0.0433  0.8857  0.3840
 8.2372  1214.0  0.0412  0.8941  0.3773
 8.2237  1216.0  0.0392  0.9024  0.3710
 8.2102  1218.0  0.0373  0.9107  0.3651
 8.1967  1220.0  0.0356  0.9190  0.3595
 8.1833  1222.0  0.0341  0.9273  0.3542
 8.1699  1224.0  0.0326  0.9355  0.3493
 8.1566  1226.0  0.0313  0.9436  0.3447
 8.1433  1228.0  0.0301  0.9517  0.3404
 8.1301  1230.0  0.0290  0.9597  0.3363
 8.1169  1232.0  0.0280  0.9677  0.3326
 8.1037  1234.0  0.0271  0.9755  0.3291
 8.0906  1236.0  0.0263  0.9833  0.3258
 8.0775  1238.0  0.0256  0.9911  0.3228
 8.0645  1240.0  0.0250  0.9987  0.3200
 8.0515  1242.0  0.0244   1.006  0.3175
 8.0386  1244.0  0.0239   1.014  0.3151
 8.0257  1246.0  0.0235   1.021  0.3130
 8.0128  1248.0  0.0232   1.029  0.3111
 8.0000  1250.0  0.0229   1.036  0.3093
 7.9872  1252.0  0.0226   1.043  0.3078
 7.9745  1254.0  0.0224   1.050  0.3065
 7.9618  1256.0  0.0223   1.057  0.3053
 7.9491  1258.0  0.0222   1.064  0.3044
 7.9365  1260.0  0.0222   1.071  0.3036
 7.9239  1262.0  0.0222   1.077  0.3030
 7.9114  1264.0  0.0222   1.084  0.3026
 7.8989  1266.0  0.0223   1.091  0.3023
 7.8864  1268.0  0.0224   1.097  0.3022
 7.8740  1270.0  0.0226   1.104  0.3023
 7.8616  1272.0  0.0228   1.110  0.3026
 7.8493  1274.0  0.0230   1.116  0.3030
 7.8370  1276.0  0.0233   1.122  0.3036
 7.8247  1278.0  0.0236   1.128  0.3043
 7.8125  1280.0  0.0239   1.134  0.3053
 7.8003  1282.0  0.0243   1.140  0.3063
 7.7882  1284.0  0.0246   1.146  0.3076
 7.7760  1286.0  0.0251   1.151  0.3090
 7.7640  1288.0  0.0255   1.157  0.3106
 7.7519  1290.0  0.0259   1.162  0.3123
 7.7399  1292.0  0.0264   1.167  0.3142
 7.7280  1294.0  0.0269   1.172  0.3163
 7.7160  1296.0  0.0274   1.177  0.3185
 7.7042  1298.0  0.0280   1.182  0.3209
 7.6923  1300.0  0.0285   1.187  0.3235
 7.6805  1302.0  0.0291   1.191  0.3262
 7.6687  1304.0  0.0297   1.195  0.3290
 7.6570  1306.0  0.0303   1.199  0.3320
 7.6453  1308.0  0.0309   1.203  0.3351
 7.6336  1310.0  0.0316   1.207  0.3384
 7.6220  1312.0  0.0322   1.211  0.3418
 7.6104  1314.0  0.0329   1.214  0.3453
 7.5988  1316.0  0.0335   1.217  0.3490
 7.5873  1318.0  0.0342   1.220  0.3527
 7.5758  1320.0  0.0349   1.223  0.3566
 7.5643  1322.0  0.0355   1.225  0.3605
 7.5529  1324.0  0.0362   1.227  0.3645
 7.5415  1326.0  0.0369   1.229  0.3685
 7.5301  1328.0  0.0375   1.230  0.3726
 7.5188  1330.0  0.0382   1.231  0.3767
 7.5075  1332.0  0.0388   1.232  0.3808
 7.4963  1334.0  0.0394   1.233  0.3848
 7.4850  1336.0  0.0400   1.233  0.3888
 7.4738  1338.0  0.0406   1.234  0.3928
 7.4627  1340.0  0.0412   1.233  0.3966
 7.4516  1342.0  0.0417   1.233  0.4003
 7.4405  1344.0  0.0422   1.232  0.4039
 7.4294  1346.0  0.0426   1.231  0.4073
 7.4184  1348.0  0.0431   1.230  0.4106
 7.4074  1350.0  0.0434   1.228  0.4136
 7.3964  1352.0  0.0438   1.226  0.4164
 7.3855  1354.0  0.0441   1.225  0.4190
 7.3746  1356.0  0.0444   1.223  0.4213
 7.3638  1358.0  0.0446   1.220  0.4233
 7.3529  1360.0  0.0448   1.218  0.4251
 7.3421  1362.0  0.0449   1.216  0.4266
 7.3314  1364.0  0.0450   1.213  0.4278
 7.3206  1366.0  0.0450   1.211  0.4288
 7.3099  1368.0  0.0450   1.208  0.4294
 7.2993  1370.0  0.0450   1.206  0.4298
 7.2886  1372.0  0.0449   1.204  0.4300
 7.2780  1374.0  0.0448   1.201  0.4299
 7.2674  1376.0  0.0447   1.199  0.4295
 7.2569  1378.0  0.0445   1.197  0.4290
 7.2464  1380.0  0.0443   1.195  0.4283
 7.2359  1382.0  0.0441   1.194  0.4274
 7.2254  1384.0  0.0438   1.192  0.4264
 7.2150  1386.0  0.0436   1.191  0.4252
 7.2046  1388.0  0.0433   1.189  0.4239
 7.1942  1390.0  0.0431   1.188  0.4226
 7.1839  1392.0  0.0428   1.187  0.4211
 7.1736  1394.0  0.0426   1.187  0.4197
 7.1633  1396.0  0.0423   1.186  0.4182
 7.1531  1398.0  0.0421   1.186  0.4167
 7.1429  1400.0  0.0418   1.186  0.4153
 7.1327  1402.0  0.0416   1.186  0.4138
 7.1225  1404.0  0.0414   1.186  0.4124
 7.1124  1406.0  0.0412   1.186  0.4111
 7.1023  1408.0  0.0410   1.187  0.4098
 7.0922  1410.0  0.0408   1.187  0.4086
 7.0822  1412.0  0.0407   1.188  0.4075
 7.0721  1414.0  0.0405   1.189  0.4065
 7.0621  1416.0  0.0404   1.190  0.4056
 7.0522  1418.0  0.0403   1.191  0.4048
 7.0423  1420.0  0.0403   1.192  0.4041
 7.0323  1422.0  0.0402   1.193  0.4035
 7.0225  1424.0  0.0402   1.194  0.4030
 7.0126  1426.0  0.0402   1.196  0.4027
 7.0028  1428.0  0.0402   1.197  0.4025
 6.9930  1430.0  0.0403   1.198  0.4024
 6.9832  1432.0  0.0403   1.199  0.4024
 6.9735  1434.0  0.0404   1.201  0.4026
 6.9638  1436.0  0.0405   1.202  0.4029
 6.9541  1438.0  0.0407   1.203  0.4033
 6.9444  1440.0  0.0408   1.205  0.4038
 6.9348  1442.0  0.0409   1.206  0.4044
 6.9252  1444.0  0.0411   1.207  0.4051
 6.9156  1446.0  0.0413   1.208  0.4060
 6.9061  1448.0  0.0415   1.209  0.4070
 6.8966  1450.0  0.0417   1.211  0.4081
 6.8871  1452.0  0.0420   1.212  0.4092
 6.8776  1454.0  0.0422   1.213  0.4105
 6.8681  1456.0  0.0425   1.213  0.4119
 6.8587  1458.0  0.0427   1.214  0.4134
 6.8493  1460.0  0.0430   1.215  0.4149
 6.8399  1462.0  0.0433   1.216  0.4165
 6.8306  1464.0  0.0436   1.216  0.4183
 6.8213  1466.0  0.0439   1.217  0.4201
 6.8120  1468.0  0.0442   1.217  0.4219
 6.8027  1470.0  0.0445   1.218  0.4239
 6.7935  1472.0  0.0449   1.218  0.4259
 6.7843  1474.0  0.0452   1.218  0.4280
 6.7751  1476.0  0.0455   1.218  0.4301
 6.7659  1478.0  0.0459   1.218  0.4323
 6.7568  1480.0  0.0462   1.218  0.4345
 6.7476  1482.0  0.0466   1.217  0.4367
 6.7385  1484.0  0.0469   1.217  0.4390
 6.7295  1486.0  0.0473   1.216  0.4413
 6.7204  1488.0  0.0477   1.216  0.4437
 6.7114  1490.0  0.0480   1.215  0.4461
 6.7024  1492.0  0.0484   1.214  0.4484
 6.6934  1494.0  0.0487   1.213  0.4508
 6.6845  1496.0  0.0491   1.212  0.4532
 6.6756  1498.0  0.0494   1.210  0.4556
 6.6667  1500.0  0.0498   1.209  0.4580
 6.6578  1502.0  0.0501   1.207  0.4604
 6.6489  1504.0  0.0505   1.206  0.4627
 6.6401  1506.0  0.0508   1.204  0.4651
 6.6313  1508.0  0.0511   1.202  0.4674
 6.6225  1510.0  0.0515   1.200  0.4696
 6.6138  1512.0  0.0518   1.197  0.4719
 6.6050  1514.0  0.0521   1.195  0.4741
 6.5963  1516.0  0.0524   1.193  0.4762
 6.5876  1518.0  0.0527   1.190  0.4783
 6.5789  1520.0  0.0530   1.187  0.4803
 6.5703  1522.0  0.0533   1.184  0.4822
 6.5617  1524.0  0.0535   1.181  0.4841
 6.5531  1526.0  0.0538   1.178  0.4859
 6.5445  1528.0  0.0540   1.175  0.4876
 6.5359  1530.0  0.0542   1.172  0.4892
 6.5274  1532.0  0.0545   1.169  0.4907
 6.5189  1534.0  0.0547   1.165  0.4921
 6.5104  1536.0  0.0548   1.162  0.4935
 6.5020  1538.0  0.0550   1.158  0.4947
 6.4935  1540.0  0.0552   1.154  0.4958
 6.4851  1542.0  0.0553   1.150  0.4968
 6.4767  1544.0  0.0554   1.146  0.4977
 6.4683  1546.0  0.0555   1.142  0.4984
 6.4599  1548.0  0.0556   1.138  0.4990
 6.4516  1550.0  0.0557   1.134  0.4996
 6.4433  1552.0  0.0557   1.130  0.4999
 6.4350  1554.0  0.0558   1.126  0.5002
 6.4267  1556.0  0.0558   1.122  0.5003
 6.4185  1558.0  0.0558   1.117  0.5002
 6.4103  1560.0  0.0557   1.113  0.5001
 6.4020  1562.0  0.0557   1.109  0.4998
 6.3939  1564.0  0.0556   1.104  0.4993
 6.3857  1566.0  0.0555   1.100  0.4988
 6.3776  1568.0  0.0554   1.095  0.4980
 6.3694  1570.0  0.0553   1.091  0.4972
 6.3613  1572.0  0.0551   1.086  0.4962
 6.3532  1574.0  0.0550   1.082  0.4950
 6.3452  1576.0  0.0548   1.078  0.4938
 6.3371  1578.0  0.0546   1.073  0.4923
 6.3291  1580.0  0.0543   1.069  0.4908
 6.3211  1582.0  0.0541   1.065  0.4891
 6.3131  1584.0  0.0538   1.060  0.4873
 6.3052  1586.0  0.0535   1.056  0.4853
 6.2972  1588.0  0.0532   1.052  0.4833
 6.2893  1590.0  0.0528   1.048  0.4811
 6.2814  1592.0  0.0525   1.043  0.4787
 6.2735  1594.0  0.0521   1.039  0.4763
 6.2657  1596.0  0.0517   1.035  0.4737
 6.2578  1598.0  0.0513   1.031  0.4711
 6.2500  1600.0  0.0508   1.028  0.4683
